 	dT	T (0)	Base X (0)	Base Y (0)	Tip X (0)	Tip Y (0)	||[body,base]|| (0)	||[base,tip]||  (0)	||[base,tip]|| : [body,base] (0)	[base,tip] ? [body,base] (0)	?||[base,tip]|| : [body,base] (0)	||[tip(t-1),tip(t)]|| : [base,tip] (0)	||[base(t-1),base(t)]|| : [base,tip] (0)	T (1)	Base X (1)	Base Y (1)	Tip X (1)	Tip Y (1)	||[body,base]|| (1)	||[base,tip]||  (1)	||[base,tip]|| : [body,base] (1)	[base,tip] ? [body,base] (1)	?||[base,tip]|| : [body,base] (1)	||[tip(t-1),tip(t)]|| : [base,tip] (1)	||[base(t-1),base(t)]|| : [base,tip] (1)	T (2)	Base X (2)	Base Y (2)	Tip X (2)	Tip Y (2)	||[body,base]|| (2)	||[base,tip]||  (2)	||[base,tip]|| : [body,base] (2)	[base,tip] ? [body,base] (2)	?||[base,tip]|| : [body,base] (2)	||[tip(t-1),tip(t)]|| : [base,tip] (2)	||[base(t-1),base(t)]|| : [base,tip] (2)	T (3)	Base X (3)	Base Y (3)	Tip X (3)	Tip Y (3)	||[body,base]|| (3)	||[base,tip]||  (3)	||[base,tip]|| : [body,base] (3)	[base,tip] ? [body,base] (3)	?||[base,tip]|| : [body,base] (3)	||[tip(t-1),tip(t)]|| : [base,tip] (3)	||[base(t-1),base(t)]|| : [base,tip] (3)	T (4)	Base X (4)	Base Y (4)	Tip X (4)	Tip Y (4)	||[body,base]|| (4)	||[base,tip]||  (4)	||[base,tip]|| : [body,base] (4)	[base,tip] ? [body,base] (4)	?||[base,tip]|| : [body,base] (4)	||[tip(t-1),tip(t)]|| : [base,tip] (4)	||[base(t-1),base(t)]|| : [base,tip] (4)	T (5)	Base X (5)	Base Y (5)	Tip X (5)	Tip Y (5)	||[body,base]|| (5)	||[base,tip]||  (5)	||[base,tip]|| : [body,base] (5)	[base,tip] ? [body,base] (5)	?||[base,tip]|| : [body,base] (5)	||[tip(t-1),tip(t)]|| : [base,tip] (5)	||[base(t-1),base(t)]|| : [base,tip] (5)	T (6)	Base X (6)	Base Y (6)	Tip X (6)	Tip Y (6)	||[body,base]|| (6)	||[base,tip]||  (6)	||[base,tip]|| : [body,base] (6)	[base,tip] ? [body,base] (6)	?||[base,tip]|| : [body,base] (6)	||[tip(t-1),tip(t)]|| : [base,tip] (6)	||[base(t-1),base(t)]|| : [base,tip] (6)	T (7)	Base X (7)	Base Y (7)	Tip X (7)	Tip Y (7)	||[body,base]|| (7)	||[base,tip]||  (7)	||[base,tip]|| : [body,base] (7)	[base,tip] ? [body,base] (7)	?||[base,tip]|| : [body,base] (7)	||[tip(t-1),tip(t)]|| : [base,tip] (7)	||[base(t-1),base(t)]|| : [base,tip] (7)	T (8)	Base X (8)	Base Y (8)	Tip X (8)	Tip Y (8)	||[body,base]|| (8)	||[base,tip]||  (8)	||[base,tip]|| : [body,base] (8)	[base,tip] ? [body,base] (8)	?||[base,tip]|| : [body,base] (8)	||[tip(t-1),tip(t)]|| : [base,tip] (8)	||[base(t-1),base(t)]|| : [base,tip] (8)
1	0.000	1.000	30.030	48.100	28.990	48.295	13.879	1.058	1.051	14.589	NaN	NaN	NaN	1.000	31.200	50.375	17.290	52.585	13.085	14.084	14.023	183.492	NaN	NaN	NaN	1.000	35.620	55.315	35.230	55.770	11.628	0.599	0.597	6.946	NaN	NaN	NaN	4.000	33.605	53.820	32.955	54.795	12.443	1.172	1.070	13.309	NaN	NaN	NaN	1.000	32.500	52.390	22.555	58.110	12.534	11.473	11.428	143.240	NaN	NaN	NaN	1.000	43.225	52.130	44.265	59.995	5.047	7.933	7.666	38.688	NaN	NaN	NaN	1.000	41.730	52.130	38.025	66.495	5.445	14.835	14.663	79.844	NaN	NaN	NaN	3.000	33.475	46.865	33.345	46.670	10.792	0.234	0.134	1.441	NaN	NaN	NaN	102.000	30.225	51.285	30.160	51.415	14.224	0.145	0.097	1.382	NaN	NaN	NaN
2	1.000	2.000	30.095	48.100	28.990	48.295	13.814	1.122	1.116	15.417	0.065	NaN	-0.064	2.000	31.135	50.375	17.290	52.585	13.148	14.020	13.962	183.568	-0.061	NaN	0.064	2.000	35.555	55.315	35.230	55.770	11.675	0.559	0.551	6.430	-0.047	NaN	0.038	5.000	33.020	54.730	32.825	54.925	13.468	0.276	0.271	3.650	-0.798	0.184	1.057	2.000	32.370	52.455	22.490	58.175	12.680	11.416	11.369	144.157	-0.059	0.089	0.145	2.000	43.160	52.065	44.265	59.995	4.991	8.007	7.690	38.384	0.024	NaN	-0.073	2.000	41.665	52.390	38.025	66.625	5.710	14.693	14.534	82.992	-0.129	0.126	0.268	4.000	33.410	46.865	33.215	46.735	10.730	0.234	0.199	2.134	0.065	0.072	0.054	103.000	30.615	51.090	30.160	51.350	13.968	0.524	0.506	7.064	0.409	-0.032	-0.435
3	2.000	3.000	31.135	48.100	28.925	48.295	13.171	2.219	2.218	29.220	1.102	0.065	-1.036	3.000	30.875	50.310	17.290	52.585	13.779	13.774	13.738	189.297	-0.223	NaN	0.246	3.000	35.555	55.315	35.165	55.770	12.000	0.599	0.596	7.153	0.045	0.042	NaN	6.000	33.280	54.275	32.890	54.925	12.944	0.758	0.684	8.856	0.413	-0.033	-0.524	3.000	32.240	52.520	22.360	58.305	13.207	11.449	11.388	150.393	0.019	0.178	0.145	3.000	43.095	52.260	44.265	59.995	5.330	7.823	7.290	38.853	-0.400	NaN	0.183	3.000	41.665	52.130	38.025	66.690	5.698	15.008	14.617	83.283	0.082	0.063	-0.252	5.000	33.540	46.865	33.215	46.670	10.598	0.379	0.330	3.494	0.131	0.033	-0.111	104.000	30.355	51.090	30.160	51.415	13.654	0.379	0.272	3.714	-0.234	0.056	0.134
4	3.000	4.000	30.680	48.100	28.860	48.230	13.486	1.825	1.825	24.606	-0.394	0.060	0.454	4.000	30.550	50.375	17.290	52.520	13.953	13.432	13.400	186.969	-0.339	-0.010	0.331	4.000	35.490	55.380	35.165	55.770	11.908	0.508	0.504	6.004	-0.092	NaN	0.092	7.000	33.605	53.820	32.760	54.990	12.404	1.443	1.346	16.697	0.662	0.129	-0.559	4.000	32.305	52.520	22.295	58.435	12.975	11.627	11.556	149.945	0.168	0.122	-0.056	4.000	43.160	52.130	44.265	60.060	5.035	8.007	7.566	38.097	0.276	0.064	-0.120	4.000	41.665	52.130	38.025	66.755	5.523	15.071	14.709	81.238	0.092	0.063	NaN	6.000	33.475	46.735	33.150	46.670	10.602	0.331	0.327	3.469	-0.003	0.064	0.089	105.000	30.615	50.960	30.095	51.350	13.952	0.650	0.600	8.374	0.328	0.013	-0.286
5	4.000	5.000	30.875	48.100	28.795	48.230	13.296	2.084	2.084	27.708	0.259	0.065	-0.195	5.000	30.550	50.375	17.290	52.520	13.968	13.432	13.395	187.108	-0.004	NaN	NaN	5.000	35.490	55.315	35.165	55.770	11.908	0.559	0.549	6.536	0.045	NaN	-0.053	8.000	33.540	54.015	32.760	54.925	12.728	1.199	1.151	14.644	-0.196	-0.049	0.190	5.000	32.305	52.520	22.230	58.500	13.002	11.716	11.648	151.449	0.092	0.089	NaN	5.000	43.095	52.065	44.330	60.190	5.048	8.218	7.696	38.853	0.130	0.138	-0.074	5.000	41.665	52.065	37.895	66.950	5.523	15.355	15.000	82.844	0.291	0.221	-0.063	7.000	33.540	46.670	33.085	46.475	10.472	0.495	0.462	4.838	0.135	0.137	-0.034	106.000	30.290	51.220	30.030	51.415	13.956	0.325	0.302	4.221	-0.298	0.091	0.416
6	5.000	6.000	30.940	48.100	28.665	48.230	13.166	2.279	2.278	29.998	0.194	0.130	-0.065	6.000	30.420	50.375	17.420	52.520	14.032	13.176	13.143	184.421	-0.252	-0.128	0.128	6.000	35.490	55.315	35.230	55.770	11.861	0.524	0.502	5.957	-0.047	-0.032	NaN	9.000	33.475	54.015	32.695	55.120	12.822	1.353	1.248	16.009	0.098	0.197	0.037	6.000	32.110	52.650	22.165	58.500	13.174	11.538	11.482	151.263	-0.167	0.056	0.234	6.000	43.030	52.000	44.330	60.125	4.985	8.228	7.675	38.257	-0.021	-0.064	-0.074	6.000	41.730	51.740	37.830	66.950	5.174	15.702	15.330	79.320	0.330	0.016	-0.331	8.000	33.540	46.670	33.085	46.475	10.667	0.495	0.462	4.926	-1.212E-4	NaN	NaN	107.000	30.680	50.960	29.965	51.415	13.936	0.847	0.804	11.205	0.502	0.055	-0.469
7	6.000	7.000	31.265	48.035	28.600	48.165	12.777	2.668	2.667	34.079	0.389	0.062	-0.328	7.000	30.355	50.375	17.355	52.520	14.047	13.176	13.139	184.561	-0.004	0.064	0.064	7.000	35.555	55.250	35.230	55.705	11.768	0.559	0.550	6.473	0.048	-0.053	-0.091	10.000	33.605	53.820	32.695	55.055	12.664	1.534	1.422	18.007	0.173	-0.052	-0.234	7.000	32.110	52.715	22.165	58.630	13.171	11.571	11.521	151.745	0.040	0.066	0.033	7.000	43.095	52.000	44.265	60.060	5.023	8.144	7.715	38.752	0.040	-0.074	0.009	7.000	41.730	51.805	37.960	66.885	5.262	15.544	15.228	80.131	-0.102	-0.095	0.063	9.000	33.540	46.605	33.020	46.345	10.806	0.581	0.533	5.763	0.071	0.116	0.029	108.000	30.485	51.025	29.900	51.415	14.015	0.703	0.663	9.291	-0.141	0.054	0.198
8	7.000	8.000	31.265	48.035	28.535	48.100	12.972	2.731	2.727	35.376	0.060	0.063	NaN	8.000	30.745	50.310	17.550	52.520	13.842	13.379	13.345	184.721	0.206	-0.192	-0.395	8.000	35.490	55.250	35.230	55.705	11.956	0.524	0.501	5.991	-0.049	NaN	0.032	11.000	33.540	54.015	32.630	55.120	12.822	1.431	1.359	17.420	-0.063	0.091	0.192	8.000	32.175	52.715	22.165	58.630	13.288	11.627	11.576	153.820	0.054	NaN	-0.056	8.000	43.160	52.195	44.265	59.800	5.239	7.685	7.234	37.902	-0.480	-0.257	0.202	8.000	41.730	52.130	38.155	66.950	5.640	15.245	14.889	83.968	-0.339	0.017	0.316	10.000	33.670	46.670	32.890	46.280	10.738	0.872	0.798	8.568	0.265	0.145	-0.145	109.000	30.355	51.090	29.835	51.545	13.952	0.691	0.616	8.598	-0.047	0.135	0.141
9	8.000	9.000	31.135	48.035	28.470	48.100	13.222	2.666	2.664	35.220	-0.063	0.065	0.130	9.000	31.005	50.180	17.615	52.520	13.656	13.593	13.577	185.418	0.232	-0.064	-0.278	9.000	35.360	55.510	35.295	55.705	12.235	0.206	0.180	2.205	-0.321	-0.021	0.288	12.000	33.540	54.080	32.565	55.120	12.152	1.426	1.393	16.925	0.034	0.044	0.047	9.000	32.045	52.715	22.165	58.630	13.470	11.515	11.437	154.056	-0.139	NaN	0.112	9.000	43.160	52.130	44.200	59.540	5.077	7.483	6.971	35.389	-0.263	-0.267	-0.064	9.000	41.730	51.870	38.285	67.015	5.354	15.532	14.912	79.836	0.023	0.035	-0.254	11.000	33.800	46.735	32.825	46.280	10.605	1.076	0.994	10.537	0.196	0.059	-0.145	110.000	30.615	50.960	29.835	51.545	13.794	0.975	0.898	12.383	0.281	NaN	-0.286
10	9.000	10.000	31.655	48.035	28.340	48.100	12.768	3.316	3.312	42.288	0.648	0.130	-0.520	10.000	31.135	50.115	17.680	52.520	13.579	13.668	13.657	185.448	0.080	-0.064	-0.139	10.000	35.295	55.510	35.230	55.640	12.330	0.145	0.136	1.673	-0.045	-0.029	0.029	13.000	33.475	54.080	32.565	55.185	12.693	1.431	1.364	17.314	-0.029	0.050	0.041	10.000	32.175	52.715	22.100	58.695	13.411	11.716	11.644	156.156	0.207	0.089	-0.112	10.000	43.160	52.065	44.135	59.410	5.029	7.409	6.881	34.603	-0.090	-0.137	-0.064	10.000	41.665	52.195	38.220	67.080	5.701	15.278	14.717	83.904	-0.195	0.078	0.331	12.000	33.800	46.670	32.890	46.280	9.764	0.990	0.929	9.075	-0.064	-0.060	0.026	111.000	30.615	50.960	29.770	51.610	13.810	1.066	0.978	13.512	0.081	0.091	NaN
11	10.000	11.000	31.785	48.035	28.210	47.970	12.638	3.576	3.563	45.026	0.251	0.132	-0.130	11.000	31.135	50.115	17.680	52.520	13.579	13.668	13.657	185.448	NaN	NaN	NaN	11.000	35.295	55.510	35.295	55.705	12.330	0.195	0.132	1.622	-0.004	0.065	NaN	14.000	33.475	54.145	32.630	55.120	12.892	1.290	1.237	15.954	-0.127	-0.092	0.049	11.000	32.240	52.715	22.035	58.760	13.352	11.861	11.792	157.440	0.148	0.089	-0.056	11.000	43.225	52.000	44.135	59.605	4.950	7.659	7.174	35.515	0.294	0.194	-0.057	11.000	41.665	52.065	38.220	67.080	5.587	15.405	14.784	82.603	0.067	NaN	-0.127	13.000	33.930	46.800	32.825	46.345	10.212	1.195	1.122	11.454	0.192	0.035	-0.170	112.000	30.550	51.025	29.835	51.610	13.952	0.924	0.837	11.682	-0.141	-0.050	0.091
12	11.000	12.000	29.380	47.970	28.210	48.100	14.191	1.177	1.175	16.680	-2.387	0.014	2.383	12.000	31.200	50.115	17.680	52.520	12.692	13.732	13.710	174.007	0.053	NaN	-0.064	12.000	35.360	55.510	35.295	55.705	11.675	0.206	0.185	2.155	0.053	NaN	-0.021	15.000	33.410	54.275	32.500	55.120	13.181	1.242	1.222	16.101	-0.016	0.095	0.136	12.000	32.370	52.650	22.100	58.760	12.442	11.950	11.910	148.179	0.118	-0.056	-0.145	12.000	43.160	52.065	44.070	59.540	4.891	7.530	7.379	36.086	0.204	-0.072	0.057	12.000	41.665	52.260	38.220	67.275	5.409	15.405	15.274	82.620	0.490	0.190	0.190	14.000	33.865	46.800	32.825	46.410	10.472	1.111	1.054	11.036	-0.068	-0.023	0.061	113.000	30.550	50.895	29.835	51.610	13.920	1.011	0.865	12.037	0.027	NaN	-0.092
13	12.000	13.000	30.550	47.970	28.210	48.035	13.607	2.341	2.340	31.840	1.165	-0.002	-1.170	13.000	31.070	50.115	17.875	52.390	13.388	13.390	13.373	179.047	-0.337	-0.214	0.128	13.000	35.295	55.575	35.230	55.705	12.184	0.145	0.137	1.665	-0.048	0.029	0.087	16.000	33.410	54.210	32.500	55.250	12.548	1.382	1.336	16.765	0.115	0.098	-0.049	13.000	32.370	52.650	22.100	58.825	12.970	11.983	11.915	154.542	0.006	0.033	NaN	13.000	43.160	52.065	44.070	59.605	4.972	7.595	7.215	35.870	-0.164	0.065	NaN	13.000	41.665	52.455	38.220	67.405	5.816	15.342	14.998	87.221	-0.277	0.127	0.190	15.000	33.865	46.800	32.825	46.475	10.667	1.090	1.051	11.213	-0.003	-0.019	NaN	114.000	30.355	51.090	29.705	51.610	13.968	0.832	0.760	10.613	-0.105	0.102	0.274
14	13.000	14.000	31.005	47.905	28.275	48.165	13.344	2.742	2.740	36.563	0.400	-0.052	-0.459	14.000	31.265	50.180	18.005	52.390	13.403	13.443	13.419	179.850	0.046	-0.128	-0.182	14.000	35.360	55.575	35.295	55.705	12.279	0.145	0.136	1.673	-3.649E-4	-0.029	-0.029	17.000	33.345	54.275	32.435	55.250	12.674	1.334	1.301	16.494	-0.035	0.044	0.092	14.000	32.435	52.650	22.100	58.695	13.088	11.973	11.915	155.941	-6.053E-4	-0.066	-0.056	14.000	43.160	52.065	44.070	59.475	5.013	7.466	6.993	35.059	-0.222	-0.129	NaN	14.000	41.665	52.130	38.220	67.275	5.613	15.532	14.965	83.997	-0.033	-0.127	-0.317	16.000	33.930	46.735	32.760	46.475	9.890	1.199	1.181	11.678	0.130	0.063	-0.049	115.000	30.420	51.025	29.640	51.610	13.968	0.975	0.902	12.599	0.142	0.052	-0.091
15	14.000	15.000	31.525	47.905	28.275	48.165	13.020	3.260	3.259	42.436	0.519	NaN	-0.518	15.000	31.395	50.180	18.135	52.455	13.466	13.454	13.434	180.906	0.015	-0.117	-0.128	15.000	35.295	55.640	35.230	55.835	12.514	0.206	0.180	2.248	0.043	0.144	0.082	18.000	33.280	54.340	32.370	55.315	12.962	1.334	1.301	16.858	-8.911E-4	0.092	0.092	15.000	32.435	52.585	22.100	58.760	13.239	12.039	11.954	158.264	0.040	0.033	-0.033	15.000	43.160	52.065	44.070	59.475	5.062	7.466	6.890	34.882	-0.103	NaN	NaN	15.000	41.665	52.065	38.220	67.275	5.652	15.595	14.862	84.001	-0.103	NaN	-0.063	17.000	33.930	46.800	32.825	46.475	9.885	1.152	1.115	11.023	-0.066	-0.062	-0.018	116.000	30.550	51.025	29.640	51.675	13.952	1.118	1.042	14.542	0.140	0.038	-0.106
16	15.000	16.000	29.900	47.840	28.210	48.165	13.925	1.721	1.703	23.719	-1.556	0.064	1.583	16.000	31.330	50.180	18.200	52.455	12.833	13.326	13.299	170.665	-0.135	-0.064	0.064	16.000	35.230	55.640	35.230	55.770	12.042	0.130	0.091	1.099	-0.088	-0.065	-1.194E-17	19.000	33.280	54.340	32.240	55.380	13.160	1.471	1.443	18.996	0.143	0.138	NaN	16.000	32.500	52.455	22.100	58.760	12.475	12.162	12.089	150.820	0.135	NaN	-0.123	16.000	43.160	52.065	44.135	59.475	4.918	7.474	7.216	35.490	0.326	0.008	NaN	16.000	41.665	52.130	38.415	67.145	5.386	15.363	15.067	81.145	0.205	-0.168	0.064	18.000	33.800	46.800	32.825	46.540	10.208	1.009	0.981	10.017	-0.134	-0.017	0.126	117.000	30.680	50.960	29.445	51.740	13.936	1.461	1.387	19.334	0.345	0.200	-0.145
17	16.000	17.000	29.965	47.970	28.210	48.295	13.871	1.785	1.772	24.573	0.068	0.024	-0.040	17.000	31.200	50.245	18.200	52.455	12.990	13.187	13.150	170.825	-0.148	NaN	0.139	17.000	35.360	55.640	35.295	55.835	11.996	0.206	0.184	2.210	0.093	0.041	-0.041	20.000	33.215	54.470	32.110	55.510	13.341	1.517	1.498	19.984	0.055	0.184	0.136	17.000	32.435	52.455	22.035	58.825	12.562	12.196	12.120	152.252	0.031	0.089	0.055	17.000	43.095	51.935	44.070	59.345	4.863	7.474	7.186	34.945	-0.030	-0.137	-0.137	17.000	41.665	52.195	38.480	67.080	5.505	15.222	14.950	82.299	-0.118	-0.077	0.064	19.000	33.670	46.865	32.890	46.605	10.531	0.822	0.783	8.247	-0.198	-0.082	0.103	118.000	30.680	50.960	29.315	51.805	13.873	1.605	1.530	21.222	0.142	0.145	NaN
18	17.000	18.000	30.355	47.970	28.145	48.555	13.680	2.286	2.244	30.699	0.472	0.129	-0.377	18.000	31.070	50.245	18.200	52.455	13.321	13.058	13.025	173.512	-0.125	NaN	0.128	18.000	35.295	55.640	35.295	55.770	12.226	0.130	0.091	1.115	-0.093	-0.065	-1.194E-17	21.000	33.215	54.470	32.045	55.640	13.268	1.655	1.622	21.522	0.124	0.138	NaN	18.000	32.500	52.455	22.035	58.890	12.707	12.285	12.207	155.117	0.087	0.034	-0.055	18.000	43.030	52.195	44.070	59.345	5.227	7.225	6.830	35.701	-0.356	NaN	0.248	18.000	41.665	52.065	38.350	67.015	5.525	15.313	14.947	82.582	-0.003	-0.035	-0.127	20.000	33.605	46.800	32.955	46.605	10.662	0.679	0.653	6.967	-0.130	-0.062	0.081	119.000	30.680	51.025	29.315	51.805	13.873	1.572	1.514	21.002	-0.016	NaN	0.032
19	18.000	19.000	30.745	47.970	28.080	48.490	13.490	2.715	2.696	36.365	0.452	0.051	-0.383	19.000	31.005	50.245	18.135	52.455	13.589	13.058	13.025	177.002	-6.523E-5	0.064	0.064	19.000	35.295	55.640	35.230	55.835	12.411	0.206	0.182	2.265	0.091	0.082	NaN	22.000	33.215	54.470	31.915	55.835	13.214	1.885	1.839	24.306	0.217	0.231	NaN	19.000	32.370	52.650	21.970	59.020	13.112	12.196	12.130	159.054	-0.077	0.123	0.213	19.000	43.095	52.130	44.070	59.345	5.253	7.281	6.848	35.972	0.018	NaN	-0.056	19.000	41.665	52.065	38.350	67.275	5.668	15.567	15.087	85.518	0.140	0.254	NaN	21.000	33.735	46.800	33.020	46.540	10.535	0.761	0.723	7.613	0.069	-0.039	-0.122	120.000	30.810	50.960	29.185	51.870	13.810	1.862	1.798	24.835	0.284	0.145	-0.145
20	19.000	20.000	30.875	47.970	27.950	48.490	13.425	2.971	2.955	39.673	0.259	0.128	-0.128	20.000	30.875	50.245	18.135	52.455	13.779	12.930	12.902	177.771	-0.123	NaN	0.128	20.000	35.230	55.640	35.165	55.835	12.505	0.206	0.182	2.273	-6.901E-4	0.021	0.021	23.000	33.410	54.275	31.655	56.030	12.818	2.482	2.430	31.142	0.590	0.322	-0.276	20.000	32.435	52.650	21.905	59.085	13.112	12.341	12.276	160.960	0.145	0.089	-0.055	20.000	43.030	52.195	44.070	59.475	5.345	7.354	6.843	36.572	-0.006	0.129	0.055	20.000	41.665	52.195	38.350	67.470	5.814	15.631	15.145	88.049	0.058	0.191	0.127	22.000	33.800	46.735	33.085	46.540	10.407	0.741	0.722	7.512	-8.754E-4	-0.063	-0.046	121.000	30.810	50.960	29.185	51.935	13.810	1.895	1.814	25.054	0.016	0.033	NaN
21	20.000	21.000	31.070	47.970	27.885	48.425	13.222	3.217	3.208	42.411	0.253	0.055	-0.193	21.000	30.875	50.245	18.135	52.455	13.749	12.930	12.909	177.484	0.007	NaN	NaN	21.000	35.165	55.640	35.165	55.900	12.463	0.260	0.178	2.214	-0.004	0.065	-1.194E-17	24.000	33.345	54.275	31.655	56.160	12.963	2.532	2.446	31.700	0.016	0.097	0.043	21.000	32.305	52.715	21.840	59.215	13.202	12.319	12.233	161.496	-0.043	0.124	0.145	21.000	43.030	52.260	44.070	59.410	5.281	7.225	6.709	35.431	-0.134	-0.064	0.064	21.000	41.665	52.130	38.285	67.470	5.640	15.708	15.171	85.565	0.026	0.014	-0.063	23.000	33.735	46.670	33.150	46.410	10.416	0.640	0.599	6.236	-0.123	-0.007	0.086	NaN	NaN	NaN	NaN	NaN	NaN	NaN	NaN	NaN	NaN	NaN	NaN
22	21.000	22.000	31.200	48.035	27.755	48.425	13.032	3.467	3.464	45.140	0.256	0.129	-0.122	22.000	30.745	50.310	18.070	52.455	13.827	12.855	12.828	177.374	-0.081	0.064	0.139	22.000	35.035	55.770	34.970	55.965	12.599	0.206	0.181	2.282	0.003	0.123	0.164	25.000	33.345	54.210	31.655	56.355	12.783	2.731	2.585	33.044	0.140	0.153	-0.051	22.000	32.370	52.715	21.840	59.280	13.084	12.409	12.325	161.268	0.093	0.034	-0.055	22.000	43.030	52.195	44.135	59.605	5.203	7.492	6.972	36.276	0.263	0.202	-0.064	22.000	41.600	52.390	38.155	66.950	5.872	14.962	14.580	85.615	-0.591	-0.476	0.268	24.000	33.605	46.540	33.020	46.410	10.615	0.599	0.592	6.283	-0.007	0.127	0.155	NaN	NaN	NaN	NaN	NaN	NaN	NaN	NaN	NaN	NaN	NaN	NaN
23	22.000	23.000	31.590	48.035	27.495	48.360	12.569	4.108	4.107	51.625	0.643	0.254	-0.389	23.000	30.615	50.375	18.135	52.455	13.875	12.652	12.628	175.219	-0.200	-0.064	0.139	NaN	NaN	NaN	NaN	NaN	NaN	NaN	NaN	NaN	NaN	NaN	NaN	26.000	33.410	54.145	31.460	56.550	12.693	3.096	2.943	37.357	0.358	0.274	-0.091	23.000	32.435	52.650	21.710	59.540	12.884	12.747	12.625	162.654	0.299	0.250	-0.090	23.000	43.030	52.065	44.200	59.605	4.935	7.630	7.087	34.975	0.115	0.010	-0.128	23.000	41.600	52.650	38.285	66.755	5.961	14.489	14.176	84.500	-0.405	-0.220	0.253	25.000	33.800	46.605	33.020	46.345	10.291	0.822	0.795	8.180	0.203	0.021	-0.206	NaN	NaN	NaN	NaN	NaN	NaN	NaN	NaN	NaN	NaN	NaN	NaN
24	23.000	24.000	31.135	48.035	27.300	48.360	13.092	3.849	3.848	50.379	-0.259	0.194	0.453	24.000	30.745	50.375	18.135	52.455	13.827	12.780	12.750	176.292	0.122	NaN	-0.128	24.000	34.970	55.835	34.905	56.030	12.646	0.206	0.181	2.286	0.181	NaN	NaN	27.000	33.475	54.080	31.265	56.680	12.548	3.412	3.269	41.016	0.325	0.225	-0.092	24.000	32.240	52.650	21.710	59.540	13.147	12.584	12.440	163.558	-0.184	NaN	0.163	24.000	43.095	52.130	44.200	59.475	5.062	7.428	6.927	35.063	-0.160	-0.129	0.074	24.000	41.665	52.260	38.155	66.430	5.668	14.598	14.244	80.740	0.068	-0.284	-0.394	26.000	33.800	46.605	32.955	46.345	10.291	0.884	0.860	8.847	0.065	0.062	NaN	NaN	NaN	NaN	NaN	NaN	NaN	NaN	NaN	NaN	NaN	NaN	NaN
25	24.000	25.000	31.525	48.035	27.040	48.360	12.569	4.497	4.497	56.518	0.649	0.259	-0.389	25.000	30.485	50.375	18.135	52.455	13.939	12.524	12.502	174.264	-0.248	NaN	0.256	25.000	34.840	55.770	34.775	55.965	12.558	0.206	0.180	2.260	-7.448E-4	-0.021	-0.021	28.000	33.475	54.080	31.200	56.810	12.548	3.554	3.394	42.588	0.125	0.141	NaN	25.000	31.915	52.975	21.710	59.475	13.434	12.099	12.001	161.222	-0.439	-0.035	0.449	25.000	43.095	52.130	44.135	59.410	4.972	7.354	6.935	34.476	0.008	-0.074	NaN	25.000	41.600	52.585	38.155	66.365	5.875	14.204	13.951	81.957	-0.293	-0.063	0.331	27.000	33.800	46.540	32.890	46.150	10.230	0.990	0.935	9.565	0.075	0.137	0.026	NaN	NaN	NaN	NaN	NaN	NaN	NaN	NaN	NaN	NaN	NaN	NaN
26	25.000	26.000	31.070	48.035	26.780	48.425	13.023	4.308	4.306	56.074	-0.191	0.265	0.453	26.000	30.420	50.440	18.070	52.455	14.017	12.513	12.485	174.995	-0.017	0.064	0.075	26.000	34.840	55.640	34.710	55.900	12.470	0.291	0.271	3.380	0.091	-0.029	-0.116	29.000	33.475	54.275	31.005	57.005	12.601	3.682	3.572	45.013	0.178	0.275	0.145	26.000	32.370	52.715	21.645	59.605	12.911	12.747	12.632	163.102	0.631	0.125	-0.523	26.000	43.095	52.065	44.070	59.345	4.908	7.345	6.941	34.066	0.007	-0.073	-0.064	26.000	41.600	52.520	38.155	66.170	5.816	14.078	13.821	80.376	-0.130	-0.189	-0.063	28.000	33.800	46.475	32.760	46.085	10.235	1.111	1.067	10.917	0.132	0.145	0.023	NaN	NaN	NaN	NaN	NaN	NaN	NaN	NaN	NaN	NaN	NaN	NaN
27	26.000	27.000	31.135	48.035	26.520	48.490	12.894	4.637	4.634	59.750	0.328	0.265	-0.065	27.000	30.355	50.440	17.940	52.455	14.017	12.577	12.548	175.883	0.063	0.128	0.064	27.000	34.775	55.640	34.710	55.900	12.470	0.268	0.223	2.780	-0.048	NaN	0.016	30.000	33.475	54.080	30.875	57.135	12.548	4.012	3.843	48.228	0.271	0.183	-0.149	27.000	32.370	52.650	21.645	59.605	12.825	12.783	12.656	162.308	0.023	NaN	-0.035	27.000	43.095	52.130	44.070	59.345	4.959	7.281	6.914	34.286	-0.028	NaN	0.064	27.000	41.470	53.365	38.155	65.975	6.615	13.038	12.918	85.451	-0.903	-0.189	0.850	29.000	33.865	46.540	32.760	46.020	10.100	1.221	1.139	11.505	0.072	0.028	-0.086	NaN	NaN	NaN	NaN	NaN	NaN	NaN	NaN	NaN	NaN	NaN	NaN
28	27.000	28.000	30.745	47.970	26.195	48.555	13.279	4.587	4.575	60.751	-0.059	0.331	0.379	28.000	30.290	50.440	17.875	52.520	14.080	12.588	12.564	176.897	0.016	0.075	0.064	28.000	34.905	55.640	34.710	55.965	12.374	0.379	0.364	4.500	0.141	0.056	-0.067	31.000	33.475	54.210	30.940	57.330	12.710	4.020	3.837	48.761	-0.007	0.110	0.101	28.000	32.305	52.715	21.710	59.540	12.911	12.603	12.487	161.226	-0.168	-0.090	0.090	28.000	43.095	52.065	44.070	59.215	4.895	7.216	6.844	33.504	-0.069	-0.129	-0.064	28.000	41.470	53.950	38.155	65.715	7.159	12.223	12.177	87.170	-0.741	-0.250	0.563	30.000	33.930	46.540	32.565	45.955	10.100	1.485	1.403	14.171	0.264	0.205	-0.060	NaN	NaN	NaN	NaN	NaN	NaN	NaN	NaN	NaN	NaN	NaN	NaN
29	28.000	29.000	30.615	48.035	25.805	48.685	13.348	4.854	4.840	64.600	0.265	0.404	0.138	29.000	30.225	50.505	17.745	52.520	14.095	12.642	12.608	177.712	0.045	0.128	0.075	29.000	34.905	55.575	34.710	55.965	12.282	0.436	0.408	5.007	0.044	NaN	-0.058	32.000	33.475	54.015	31.200	56.745	12.603	3.554	3.391	42.736	-0.446	-0.616	-0.150	29.000	32.370	52.650	21.710	59.475	12.766	12.658	12.546	160.157	0.058	-0.035	-0.090	29.000	43.030	52.130	44.005	59.085	4.959	7.023	6.658	33.018	-0.186	-0.138	0.055	29.000	41.470	53.755	38.155	65.520	6.953	12.223	12.175	84.661	-0.001	-0.188	-0.188	31.000	33.800	46.475	32.500	45.955	10.295	1.400	1.333	13.723	-0.070	0.060	0.145	NaN	NaN	NaN	NaN	NaN	NaN	NaN	NaN	NaN	NaN	NaN	NaN
30	29.000	30.000	30.290	48.035	25.545	48.750	13.737	4.799	4.778	65.635	-0.062	0.267	0.321	30.000	30.290	50.505	17.615	52.455	14.095	12.824	12.783	180.175	0.175	0.119	-0.064	30.000	34.840	55.705	34.710	55.965	12.466	0.291	0.272	3.388	-0.136	NaN	0.145	33.000	33.475	54.080	31.330	56.680	12.584	3.371	3.218	40.501	-0.172	-0.133	0.050	30.000	32.370	52.650	21.775	59.280	12.825	12.498	12.401	159.042	-0.145	-0.159	NaN	30.000	43.030	52.065	44.005	59.085	4.908	7.087	6.686	32.816	0.028	NaN	-0.064	30.000	41.600	52.520	38.155	65.260	5.788	13.198	13.020	75.361	0.844	-0.251	-1.226	32.000	33.800	46.540	32.500	45.825	10.291	1.484	1.343	13.816	0.010	0.063	-0.031	NaN	NaN	NaN	NaN	NaN	NaN	NaN	NaN	NaN	NaN	NaN	NaN
31	30.000	31.000	30.615	48.035	25.285	48.750	13.482	5.378	5.364	72.319	0.586	0.258	-0.322	31.000	30.355	50.505	17.615	52.455	14.110	12.888	12.842	181.193	0.058	NaN	-0.064	31.000	34.905	55.640	34.580	55.900	12.466	0.416	0.415	5.176	0.143	0.061	-0.091	34.000	33.410	54.145	31.395	56.550	12.674	3.138	3.004	38.076	-0.214	-0.141	0.092	31.000	32.240	52.650	21.775	59.280	13.029	12.388	12.280	160.001	-0.121	NaN	0.110	31.000	43.095	52.065	44.005	59.150	4.972	7.143	6.769	33.652	0.083	0.064	0.008	31.000	41.665	52.065	38.220	65.130	5.436	13.512	13.241	71.977	0.221	-0.142	-0.457	33.000	33.800	46.475	32.370	45.825	10.230	1.571	1.472	15.058	0.129	0.118	0.027	NaN	NaN	NaN	NaN	NaN	NaN	NaN	NaN	NaN	NaN	NaN	NaN
32	31.000	32.000	30.550	48.035	25.090	48.750	13.546	5.507	5.494	74.423	0.130	0.193	0.064	32.000	30.420	50.505	17.615	52.455	14.047	12.953	12.904	181.253	0.062	NaN	-0.064	32.000	34.840	55.575	34.515	56.030	12.470	0.559	0.547	6.815	0.131	0.144	-0.015	35.000	33.475	54.145	31.525	56.485	12.620	3.046	2.917	36.808	-0.088	-0.133	-0.042	32.000	32.175	52.780	21.775	59.345	13.143	12.299	12.205	160.406	-0.075	0.035	0.124	32.000	43.095	52.065	44.005	59.150	4.972	7.143	6.769	33.652	NaN	NaN	NaN	32.000	41.665	52.585	38.285	65.065	5.907	12.930	12.775	75.459	-0.466	-0.080	0.502	34.000	33.540	46.410	32.370	45.890	10.494	1.280	1.205	12.650	-0.267	-0.026	0.264	NaN	NaN	NaN	NaN	NaN	NaN	NaN	NaN	NaN	NaN	NaN	NaN
33	32.000	33.000	30.680	48.035	24.830	48.750	13.352	5.894	5.884	78.555	0.390	0.258	-0.129	33.000	30.420	50.505	17.615	52.520	13.984	12.963	12.918	180.636	0.014	0.010	NaN	33.000	34.905	55.575	34.385	55.965	12.374	0.650	0.647	8.002	0.100	0.065	-0.052	36.000	33.475	54.145	31.590	56.355	12.620	2.905	2.791	35.220	-0.126	-0.141	NaN	33.000	32.110	52.845	21.840	59.215	13.171	12.085	12.010	158.184	-0.194	-0.124	0.089	33.000	43.095	52.130	44.070	59.215	5.023	7.152	6.791	34.113	0.022	0.073	0.064	33.000	41.730	52.325	38.285	65.065	5.616	13.198	13.043	73.257	0.269	NaN	-0.268	35.000	33.605	46.475	32.305	45.890	10.425	1.426	1.337	13.938	0.132	0.059	-0.086	NaN	NaN	NaN	NaN	NaN	NaN	NaN	NaN	NaN	NaN	NaN	NaN
34	33.000	34.000	31.135	48.100	24.700	48.750	12.902	6.468	6.465	83.410	0.581	0.129	-0.446	34.000	30.420	50.440	17.680	52.455	13.968	12.898	12.859	179.622	-0.058	-0.074	-0.010	34.000	34.970	55.575	34.450	56.030	12.326	0.691	0.691	8.513	0.044	-0.006	-0.049	37.000	33.475	54.145	31.655	56.355	12.655	2.863	2.740	34.679	-0.051	-0.041	NaN	34.000	32.045	52.910	22.035	58.825	13.257	11.627	11.582	153.553	-0.428	-0.366	0.089	34.000	43.225	51.935	44.070	59.020	4.809	7.135	6.854	32.959	0.063	-0.194	-0.178	34.000	41.730	52.325	38.285	65.065	5.616	13.198	13.043	73.257	NaN	NaN	NaN	36.000	33.865	46.735	32.370	46.020	10.150	1.657	1.526	15.485	0.188	-0.115	-0.347	NaN	NaN	NaN	NaN	NaN	NaN	NaN	NaN	NaN	NaN	NaN	NaN
35	34.000	35.000	31.265	48.035	24.635	48.815	12.768	6.676	6.667	85.125	0.202	0.072	-0.137	35.000	30.290	50.440	17.745	52.455	14.095	12.706	12.672	178.603	-0.188	-0.064	0.128	35.000	34.970	55.575	34.385	56.095	12.326	0.783	0.783	9.646	0.092	0.092	NaN	38.000	33.475	54.145	31.720	56.160	12.710	2.672	2.576	32.740	-0.164	-0.190	NaN	35.000	32.045	52.845	22.165	58.630	13.230	11.449	11.405	150.879	-0.178	-0.211	-0.033	35.000	43.160	51.935	44.005	58.565	4.820	6.684	6.379	30.745	-0.475	-0.460	-0.008	35.000	41.600	52.975	38.285	65.065	6.265	12.536	12.436	77.913	-0.607	NaN	0.661	37.000	33.800	46.735	32.240	45.955	10.212	1.744	1.589	16.224	0.063	0.145	0.058	NaN	NaN	NaN	NaN	NaN	NaN	NaN	NaN	NaN	NaN	NaN	NaN
36	35.000	36.000	31.525	48.100	24.570	48.815	12.513	6.992	6.989	87.449	0.321	0.065	-0.252	36.000	30.355	50.440	17.745	52.455	14.032	12.770	12.734	178.675	0.062	NaN	-0.064	36.000	34.970	55.640	34.385	56.095	12.371	0.741	0.738	9.130	-0.044	NaN	0.040	39.000	33.540	54.080	31.785	56.095	12.603	2.672	2.567	32.347	-0.009	-0.092	-0.092	36.000	32.045	52.845	22.230	58.500	13.230	11.328	11.290	149.366	-0.114	-0.121	NaN	36.000	43.160	51.935	43.940	58.500	4.820	6.611	6.327	30.492	-0.053	-0.072	NaN	36.000	41.535	53.235	38.285	65.065	6.530	12.268	12.180	79.540	-0.256	NaN	0.268	38.000	33.865	46.800	32.110	45.955	10.210	1.948	1.781	18.184	0.192	0.117	-0.087	NaN	NaN	NaN	NaN	NaN	NaN	NaN	NaN	NaN	NaN	NaN	NaN
37	36.000	37.000	31.525	48.100	24.440	48.880	12.518	7.128	7.124	89.181	0.136	0.136	NaN	37.000	30.420	50.440	17.615	52.455	13.984	12.963	12.918	180.636	0.184	0.128	-0.064	37.000	35.165	55.445	34.385	56.160	12.140	1.058	1.058	12.844	0.320	0.044	-0.276	40.000	33.410	54.210	31.785	56.095	12.783	2.489	2.389	30.538	-0.178	NaN	0.183	37.000	32.045	52.780	22.360	58.435	13.230	11.215	11.173	147.812	-0.118	-0.145	-0.033	37.000	43.160	51.935	43.940	58.500	4.884	6.611	6.331	30.919	0.004	NaN	NaN	37.000	41.470	53.170	38.285	65.065	6.555	12.314	12.201	79.979	0.021	NaN	-0.046	39.000	33.930	46.865	32.045	45.890	10.212	2.122	1.921	19.617	0.140	0.088	-0.088	NaN	NaN	NaN	NaN	NaN	NaN	NaN	NaN	NaN	NaN	NaN	NaN
38	37.000	38.000	31.655	48.100	24.310	48.815	12.453	7.380	7.378	91.885	0.254	0.123	-0.129	38.000	30.550	50.375	17.550	52.455	13.905	13.165	13.126	182.520	0.208	0.064	-0.139	38.000	35.165	55.445	34.385	56.225	12.187	1.103	1.102	13.436	0.044	0.046	NaN	41.000	33.410	54.210	31.785	56.160	12.783	2.538	2.424	30.990	0.035	0.050	NaN	38.000	31.850	52.845	22.425	58.305	13.492	10.892	10.851	146.405	-0.322	-0.121	0.201	38.000	43.095	51.935	43.940	58.500	4.908	6.619	6.266	30.754	-0.065	NaN	-0.008	38.000	41.470	53.040	38.285	65.000	6.461	12.377	12.231	79.024	0.029	-0.063	-0.126	40.000	33.995	46.865	31.980	45.890	10.147	2.238	2.051	20.812	0.130	0.059	-0.059	NaN	NaN	NaN	NaN	NaN	NaN	NaN	NaN	NaN	NaN	NaN	NaN
39	38.000	39.000	31.590	48.165	24.245	48.750	12.578	7.368	7.368	92.675	-0.010	0.060	0.070	39.000	30.615	50.310	17.485	52.455	13.861	13.304	13.280	184.071	0.154	0.064	-0.075	39.000	34.840	55.705	34.320	56.290	12.562	0.783	0.778	9.777	-0.324	0.092	0.410	42.000	33.410	54.210	31.785	56.225	12.658	2.589	2.455	31.075	0.031	0.051	NaN	39.000	31.720	52.975	22.555	58.175	13.669	10.537	10.500	143.527	-0.351	-0.177	0.177	39.000	43.095	51.935	43.940	58.500	4.794	6.619	6.225	29.845	-0.041	NaN	NaN	39.000	41.470	53.170	38.350	65.000	6.488	12.235	12.067	78.289	-0.163	-0.017	0.126	41.000	33.800	46.930	31.915	45.825	10.340	2.185	1.919	19.841	-0.132	0.089	0.135	NaN	NaN	NaN	NaN	NaN	NaN	NaN	NaN	NaN	NaN	NaN	NaN
40	39.000	40.000	31.395	48.100	24.050	48.815	12.768	7.380	7.376	94.179	0.008	0.200	0.188	40.000	30.550	50.310	17.485	52.520	13.924	13.251	13.232	184.240	-0.048	0.011	0.064	40.000	34.775	55.770	34.255	56.290	12.654	0.735	0.735	9.295	-0.044	0.046	0.092	43.000	33.280	54.405	31.720	56.160	12.927	2.348	2.263	29.254	-0.192	-0.005	0.232	40.000	31.655	52.975	22.685	58.045	13.728	10.304	10.267	140.946	-0.233	-0.177	0.057	40.000	43.095	52.065	43.940	58.500	4.921	6.490	6.111	30.074	-0.114	NaN	0.129	40.000	41.535	52.780	38.285	65.000	6.106	12.645	12.441	75.966	0.373	0.017	-0.394	42.000	33.865	46.930	31.850	45.825	10.215	2.298	2.062	21.066	0.143	0.057	-0.057	NaN	NaN	NaN	NaN	NaN	NaN	NaN	NaN	NaN	NaN	NaN	NaN
41	40.000	41.000	31.200	48.035	23.790	48.880	12.958	7.458	7.447	96.507	0.071	0.266	0.186	41.000	30.615	50.310	17.550	52.520	13.861	13.251	13.231	183.390	-7.378E-4	-0.064	-0.064	41.000	34.905	55.705	34.255	56.290	12.514	0.874	0.874	10.943	0.140	NaN	-0.140	44.000	33.345	54.340	31.655	56.290	12.674	2.580	2.483	31.468	0.220	0.141	-0.092	41.000	31.460	53.040	22.750	57.980	13.933	10.013	9.975	138.977	-0.292	-0.089	0.202	41.000	43.095	52.130	43.940	58.500	4.985	6.426	6.054	30.175	-0.058	NaN	0.064	41.000	41.535	52.650	38.350	65.000	5.989	12.754	12.508	74.909	0.067	-0.016	-0.126	43.000	33.800	46.865	31.850	45.760	10.348	2.241	2.003	20.728	-0.059	0.032	0.089	NaN	NaN	NaN	NaN	NaN	NaN	NaN	NaN	NaN	NaN	NaN	NaN
42	41.000	42.000	30.745	48.100	23.660	48.880	13.344	7.128	7.117	94.965	-0.331	0.129	0.459	42.000	30.420	50.375	17.615	52.455	13.974	12.973	12.953	181.007	-0.277	-0.075	0.203	42.000	34.710	55.835	34.255	56.355	12.610	0.691	0.686	8.653	-0.188	0.049	0.226	45.000	33.150	54.535	31.655	56.355	12.854	2.355	2.251	28.929	-0.232	0.050	0.274	42.000	31.460	52.975	22.815	57.980	13.793	9.989	9.932	136.991	-0.043	-0.056	-0.033	42.000	43.095	52.000	43.875	58.370	4.717	6.418	6.071	28.637	0.018	-0.137	-0.129	42.000	41.600	52.260	38.350	64.870	5.465	13.022	12.717	69.501	0.209	-0.126	-0.394	44.000	33.865	46.995	31.785	45.695	10.083	2.453	2.129	21.463	0.126	0.090	-0.124	NaN	NaN	NaN	NaN	NaN	NaN	NaN	NaN	NaN	NaN	NaN	NaN
43	42.000	43.000	30.615	48.165	23.530	48.750	13.542	7.109	7.107	96.246	-0.010	0.119	0.135	43.000	30.550	50.375	17.680	52.455	13.910	13.037	13.016	181.058	0.063	-0.064	-0.128	43.000	34.645	55.835	34.190	56.355	12.707	0.691	0.686	8.712	-5.720E-4	0.043	0.043	46.000	33.215	54.470	31.395	56.615	12.601	2.813	2.706	34.104	0.456	0.366	-0.092	43.000	31.460	52.975	22.880	57.915	13.853	9.901	9.844	136.366	-0.088	-0.089	NaN	43.000	43.160	52.065	43.940	58.435	4.780	6.418	6.077	29.051	0.006	0.072	0.072	43.000	41.600	52.455	38.415	64.675	5.668	12.628	12.354	70.029	-0.363	-0.205	0.189	45.000	33.930	47.060	31.785	45.760	9.953	2.508	2.194	21.839	0.066	-0.034	-0.089	NaN	NaN	NaN	NaN	NaN	NaN	NaN	NaN	NaN	NaN	NaN	NaN
44	43.000	44.000	30.225	48.165	23.530	48.750	13.737	6.721	6.717	92.278	-0.390	NaN	0.389	44.000	30.550	50.375	17.745	52.455	13.720	12.973	12.951	177.678	-0.066	-0.064	NaN	44.000	34.515	55.900	34.125	56.355	12.702	0.599	0.594	7.550	-0.091	0.042	0.134	47.000	33.215	54.535	31.200	56.875	12.638	3.088	2.980	37.666	0.274	0.324	0.049	44.000	31.330	53.040	22.880	57.915	13.820	9.755	9.705	134.123	-0.139	NaN	0.145	44.000	43.160	52.000	43.940	58.500	4.680	6.547	6.279	29.389	0.202	0.065	-0.065	44.000	41.600	52.325	38.415	64.675	5.466	12.754	12.525	68.462	0.170	NaN	-0.126	46.000	33.930	47.060	31.785	45.760	9.758	2.508	2.195	21.421	9.507E-4	NaN	NaN	NaN	NaN	NaN	NaN	NaN	NaN	NaN	NaN	NaN	NaN	NaN	NaN
45	44.000	45.000	30.095	48.165	23.465	48.750	13.799	6.656	6.651	91.780	-0.066	0.065	0.129	45.000	30.420	50.375	17.875	52.455	13.769	12.716	12.701	174.877	-0.250	-0.128	0.128	45.000	34.385	56.030	34.060	56.355	12.794	0.460	0.459	5.873	-0.135	0.046	0.184	48.000	33.215	54.470	31.005	57.005	12.728	3.363	3.236	41.190	0.256	0.226	-0.049	45.000	31.330	53.040	22.815	57.980	13.734	9.844	9.788	134.435	0.083	0.089	NaN	45.000	43.095	52.065	43.940	58.500	4.680	6.490	6.204	29.038	-0.075	NaN	0.056	45.000	41.600	52.195	38.415	64.675	5.262	12.880	12.630	66.463	0.106	NaN	-0.126	47.000	33.865	46.995	31.785	45.760	9.826	2.419	2.135	20.977	-0.060	NaN	0.089	NaN	NaN	NaN	NaN	NaN	NaN	NaN	NaN	NaN	NaN	NaN	NaN
46	45.000	46.000	29.705	48.165	23.465	48.750	13.993	6.267	6.262	87.622	-0.390	NaN	0.388	46.000	30.550	50.375	18.070	52.455	13.452	12.652	12.634	169.946	-0.067	-0.192	-0.128	46.000	34.385	56.030	34.125	56.355	12.650	0.416	0.411	5.205	-0.048	-0.041	NaN	49.000	33.280	54.340	30.940	57.135	12.638	3.645	3.485	44.050	0.249	0.141	-0.141	46.000	31.330	53.040	22.815	57.980	13.556	9.844	9.794	132.775	0.006	NaN	NaN	46.000	43.160	52.000	43.940	58.500	4.580	6.547	6.369	29.169	0.165	NaN	-0.057	46.000	41.600	52.390	38.480	64.675	5.360	12.675	12.533	67.178	-0.097	-0.016	0.189	48.000	33.995	47.060	31.785	45.760	9.890	2.564	2.267	22.426	0.133	NaN	-0.145	NaN	NaN	NaN	NaN	NaN	NaN	NaN	NaN	NaN	NaN	NaN	NaN
47	46.000	47.000	29.705	48.165	23.335	48.750	13.993	6.397	6.392	89.439	0.130	0.129	NaN	47.000	30.680	50.375	18.265	52.390	13.325	12.577	12.555	167.289	-0.079	-0.203	-0.128	47.000	34.320	56.030	34.125	56.355	12.697	0.379	0.363	4.614	-0.048	NaN	0.033	50.000	33.280	54.275	30.745	57.330	12.658	3.970	3.782	47.873	0.297	0.275	-0.050	47.000	31.200	53.170	22.750	58.110	13.728	9.788	9.740	133.713	-0.055	0.122	0.178	47.000	43.160	51.935	43.940	58.500	4.515	6.611	6.431	29.038	0.062	NaN	-0.065	47.000	41.600	52.195	38.415	64.740	5.181	12.943	12.768	66.151	0.235	0.079	-0.189	49.000	33.930	47.060	31.785	45.695	9.953	2.542	2.197	21.864	-0.071	0.035	0.055	NaN	NaN	NaN	NaN	NaN	NaN	NaN	NaN	NaN	NaN	NaN	NaN
48	47.000	48.000	30.030	48.165	23.205	48.815	13.860	6.856	6.848	94.915	0.456	0.136	-0.324	48.000	30.485	50.440	18.330	52.390	13.706	12.310	12.291	168.459	-0.263	-0.064	0.203	48.000	34.385	56.030	34.060	56.355	12.750	0.460	0.459	5.852	0.096	0.046	-0.046	51.000	33.345	54.210	30.615	57.460	12.678	4.244	4.042	51.249	0.260	0.183	-0.092	48.000	31.330	53.105	22.685	58.110	13.734	9.989	9.934	136.429	0.194	0.056	-0.145	48.000	42.965	51.090	44.005	58.565	3.689	7.547	6.987	25.777	0.556	0.073	-0.864	48.000	41.600	52.065	38.415	64.675	5.087	13.006	12.703	64.621	-0.065	-0.063	-0.126	50.000	33.995	46.995	31.850	45.695	9.955	2.508	2.202	21.924	0.005	-0.056	-0.022	NaN	NaN	NaN	NaN	NaN	NaN	NaN	NaN	NaN	NaN	NaN	NaN
49	48.000	49.000	30.095	48.165	23.075	48.815	13.799	7.050	7.044	97.200	0.196	0.129	-0.065	49.000	30.615	50.375	18.330	52.390	13.579	12.449	12.431	168.793	0.140	NaN	-0.139	49.000	34.450	55.965	34.125	56.355	12.702	0.508	0.503	6.384	0.044	-0.042	-0.092	52.000	33.410	54.210	30.550	57.460	12.712	4.329	4.158	52.855	0.115	0.043	-0.043	49.000	31.200	53.170	22.750	58.045	13.906	9.755	9.707	134.989	-0.226	-0.089	0.145	49.000	42.900	51.090	43.940	58.630	3.768	7.611	7.014	26.432	0.027	0.056	-0.009	49.000	41.600	51.870	38.480	64.675	4.971	13.180	12.813	63.696	0.110	-0.015	-0.189	51.000	33.995	46.995	31.785	45.695	10.085	2.564	2.266	22.857	0.064	0.056	NaN	NaN	NaN	NaN	NaN	NaN	NaN	NaN	NaN	NaN	NaN	NaN	NaN
50	49.000	50.000	30.160	48.230	22.815	48.750	13.802	7.363	7.363	101.620	0.318	0.255	-0.060	50.000	30.680	50.310	18.395	52.390	13.565	12.460	12.447	168.848	0.017	-0.064	-0.075	50.000	34.450	55.965	34.125	56.355	12.750	0.508	0.502	6.405	-2.473E-4	NaN	NaN	53.000	33.345	54.275	30.615	57.460	12.767	4.195	4.010	51.194	-0.148	-0.042	0.092	50.000	31.005	53.300	22.750	58.045	14.196	9.522	9.477	134.537	-0.230	NaN	0.234	50.000	42.965	50.895	44.005	58.565	3.580	7.740	7.097	25.409	0.083	-0.056	-0.184	50.000	41.535	51.805	38.480	64.675	4.975	13.228	12.743	63.396	-0.070	NaN	-0.048	52.000	33.930	46.930	31.785	45.630	10.215	2.508	2.201	22.481	-0.066	0.034	0.089	NaN	NaN	NaN	NaN	NaN	NaN	NaN	NaN	NaN	NaN	NaN	NaN
51	50.000	51.000	30.420	48.165	22.815	48.750	13.669	7.627	7.625	104.227	0.263	NaN	-0.264	51.000	30.745	50.245	18.395	52.390	13.615	12.535	12.527	170.559	0.080	NaN	-0.075	51.000	34.450	55.965	34.190	56.355	12.847	0.469	0.453	5.822	-0.049	-0.036	NaN	54.000	33.345	54.275	30.615	57.395	12.822	4.146	3.972	50.928	-0.038	-0.049	NaN	51.000	31.135	53.170	22.750	58.045	14.143	9.699	9.640	136.345	0.163	NaN	-0.178	51.000	43.030	50.960	44.005	58.630	3.661	7.732	7.077	25.908	-0.020	0.064	0.073	51.000	41.600	52.260	38.480	64.610	5.407	12.738	12.411	67.110	-0.332	-0.063	0.425	53.000	33.930	46.930	31.850	45.695	10.218	2.419	2.140	21.869	-0.061	-0.089	NaN	NaN	NaN	NaN	NaN	NaN	NaN	NaN	NaN	NaN	NaN	NaN	NaN
52	51.000	52.000	30.550	48.165	22.750	48.750	13.607	7.822	7.821	106.419	0.196	0.065	-0.130	52.000	30.745	50.245	18.330	52.390	13.692	12.599	12.589	172.372	0.062	0.064	NaN	52.000	34.515	55.900	34.255	56.225	12.847	0.416	0.410	5.269	-0.043	-0.142	-0.091	55.000	33.345	54.340	30.615	57.395	12.857	4.097	3.942	50.683	-0.030	NaN	0.048	52.000	31.070	53.170	22.880	57.915	14.288	9.465	9.410	134.452	-0.230	-0.178	0.056	52.000	43.030	50.960	43.940	58.500	3.742	7.595	6.935	25.950	-0.142	-0.137	NaN	52.000	41.665	51.740	38.480	64.675	5.007	13.321	12.823	64.199	0.411	0.063	-0.520	54.000	33.930	46.930	31.915	45.760	10.283	2.330	2.072	21.302	-0.069	-0.089	NaN	NaN	NaN	NaN	NaN	NaN	NaN	NaN	NaN	NaN	NaN	NaN	NaN
53	52.000	53.000	30.940	48.165	22.620	48.750	13.214	8.341	8.339	110.201	0.519	0.130	-0.389	53.000	30.615	50.180	18.330	52.390	13.793	12.482	12.479	172.127	-0.110	NaN	0.116	53.000	34.515	55.965	34.385	56.225	12.847	0.291	0.270	3.465	-0.140	-0.058	0.058	56.000	33.410	54.340	30.615	57.395	12.802	4.141	4.000	51.207	0.058	NaN	-0.044	53.000	31.395	53.040	22.880	57.915	13.912	9.812	9.756	135.732	0.346	NaN	-0.347	53.000	42.965	51.090	43.940	58.500	3.823	7.474	6.756	25.832	-0.179	NaN	0.120	53.000	41.665	51.805	38.415	64.675	5.007	13.274	12.798	64.076	-0.024	0.016	0.063	55.000	34.060	46.995	31.915	45.760	10.150	2.475	2.198	22.312	0.127	NaN	-0.145	NaN	NaN	NaN	NaN	NaN	NaN	NaN	NaN	NaN	NaN	NaN	NaN
54	53.000	54.000	31.135	48.165	22.620	48.750	13.085	8.535	8.534	111.667	0.195	NaN	-0.195	54.000	30.745	50.180	18.330	52.390	13.729	12.610	12.607	173.077	0.127	NaN	-0.128	54.000	34.580	55.965	34.515	56.160	12.847	0.206	0.178	2.286	-0.092	-0.103	-0.021	57.000	33.410	54.340	30.615	57.330	12.837	4.093	3.969	50.954	-0.031	-0.047	NaN	54.000	31.460	53.040	22.880	57.915	13.912	9.868	9.816	136.560	0.060	NaN	-0.057	54.000	42.965	50.960	43.940	58.500	3.721	7.603	6.789	25.261	0.033	NaN	-0.129	54.000	41.600	51.805	38.415	64.740	5.072	13.321	12.739	64.613	-0.059	0.063	0.016	56.000	33.865	46.930	31.980	45.760	10.348	2.219	1.941	20.090	-0.257	-0.055	0.200	NaN	NaN	NaN	NaN	NaN	NaN	NaN	NaN	NaN	NaN	NaN	NaN
55	54.000	55.000	31.135	48.035	22.490	48.750	13.078	8.675	8.668	113.365	0.134	0.130	-0.011	55.000	30.745	50.115	18.330	52.390	13.716	12.622	12.620	173.107	0.014	NaN	-0.012	55.000	34.645	55.965	34.515	56.160	12.799	0.234	0.227	2.903	0.049	NaN	-0.036	58.000	33.410	54.275	30.615	57.330	12.837	4.141	4.004	51.406	0.035	NaN	-0.048	55.000	31.330	53.105	22.880	57.850	14.058	9.691	9.645	135.584	-0.171	-0.032	0.145	55.000	42.965	50.960	43.940	58.435	3.721	7.538	6.728	25.033	-0.061	-0.064	NaN	55.000	41.600	51.935	38.415	64.675	5.184	13.132	12.619	65.420	-0.120	-0.063	0.126	57.000	33.865	46.930	31.915	45.760	10.345	2.274	2.000	20.686	0.058	0.056	NaN	NaN	NaN	NaN	NaN	NaN	NaN	NaN	NaN	NaN	NaN	NaN	NaN
56	55.000	56.000	31.460	48.100	22.425	48.750	12.757	9.058	9.056	115.528	0.388	0.065	-0.319	56.000	30.745	50.115	18.330	52.390	13.716	12.622	12.620	173.107	NaN	NaN	NaN	56.000	34.840	55.965	34.710	56.095	12.654	0.184	0.184	2.324	-0.043	-0.184	-0.138	59.000	33.410	54.210	30.615	57.395	12.747	4.237	4.073	51.921	0.069	0.049	-0.049	56.000	31.460	53.105	22.945	57.850	13.939	9.748	9.708	135.314	0.063	-0.057	-0.114	56.000	42.965	51.090	43.940	58.500	3.844	7.474	6.704	25.768	-0.024	0.064	0.129	56.000	41.600	52.195	38.480	64.675	5.411	12.864	12.444	67.330	-0.175	-0.016	0.252	58.000	33.735	46.930	31.980	45.825	10.472	2.074	1.795	18.797	-0.205	-0.090	0.110	NaN	NaN	NaN	NaN	NaN	NaN	NaN	NaN	NaN	NaN	NaN	NaN
57	56.000	57.000	31.655	48.035	22.360	48.750	12.562	9.322	9.320	117.071	0.263	0.065	-0.199	57.000	30.745	50.115	18.395	52.390	13.729	12.558	12.556	172.380	-0.065	-0.064	NaN	57.000	34.905	55.770	34.775	56.030	12.518	0.291	0.271	3.388	0.087	-0.087	-0.203	60.000	33.345	54.275	30.615	57.395	12.892	4.146	3.982	51.334	-0.091	NaN	0.092	57.000	31.590	52.975	22.880	57.915	13.793	10.013	9.965	137.448	0.257	0.089	-0.177	57.000	42.965	51.025	43.940	58.500	3.844	7.538	6.765	26.005	0.062	NaN	-0.064	57.000	41.600	52.065	38.350	64.870	5.354	13.211	12.772	68.377	0.328	0.221	-0.126	59.000	33.930	46.995	32.110	45.955	10.210	2.096	1.852	18.911	0.057	-0.177	-0.202	NaN	NaN	NaN	NaN	NaN	NaN	NaN	NaN	NaN	NaN	NaN	NaN
58	57.000	58.000	31.720	48.035	22.425	48.750	12.500	9.322	9.321	116.513	0.001	-0.065	-0.065	58.000	30.745	50.050	18.395	52.390	13.729	12.570	12.569	172.557	0.013	NaN	-0.012	58.000	34.970	55.770	34.710	56.095	12.514	0.416	0.411	5.146	0.141	0.091	-0.041	61.000	33.475	54.275	30.680	57.460	12.693	4.237	4.076	51.739	0.094	0.006	-0.086	58.000	31.785	52.910	22.880	57.850	13.615	10.183	10.148	138.170	0.183	-0.032	-0.202	58.000	42.965	51.025	43.940	58.435	3.905	7.474	6.721	26.250	-0.044	-0.064	NaN	58.000	41.665	51.935	38.415	64.935	5.265	13.400	12.959	68.234	0.187	0.047	-0.142	60.000	33.670	46.865	32.240	46.020	10.540	1.661	1.465	15.442	-0.387	-0.145	0.290	NaN	NaN	NaN	NaN	NaN	NaN	NaN	NaN	NaN	NaN	NaN	NaN
59	58.000	59.000	31.785	48.035	22.425	48.750	12.371	9.387	9.386	116.107	0.065	NaN	-0.065	59.000	30.550	50.180	18.395	52.390	13.883	12.354	12.350	171.446	-0.219	NaN	0.215	59.000	34.905	55.835	34.645	56.160	12.558	0.416	0.411	5.167	2.419E-4	0.091	0.091	62.000	33.410	54.275	30.615	57.525	12.693	4.287	4.112	52.187	0.035	0.092	0.042	59.000	31.915	52.845	22.880	57.850	13.411	10.329	10.295	138.060	0.147	NaN	-0.145	59.000	42.965	51.025	43.940	58.500	3.885	7.538	6.834	26.554	0.113	0.064	NaN	59.000	41.600	52.455	38.285	65.065	5.727	13.038	12.775	73.156	-0.184	0.159	0.519	61.000	33.735	46.800	32.370	46.020	10.416	1.572	1.407	14.652	-0.058	-0.113	-0.024	NaN	NaN	NaN	NaN	NaN	NaN	NaN	NaN	NaN	NaN	NaN	NaN
60	59.000	60.000	31.915	48.165	22.295	48.815	12.314	9.642	9.642	118.731	0.256	0.134	-0.121	60.000	30.745	50.180	18.395	52.390	13.756	12.546	12.540	172.490	0.190	NaN	-0.192	60.000	34.775	55.835	34.580	56.225	12.702	0.436	0.406	5.159	-0.005	0.087	0.058	63.000	33.345	54.405	30.550	57.590	12.908	4.237	4.085	52.724	-0.027	0.092	0.141	60.000	31.980	52.780	23.010	57.785	13.384	10.272	10.231	136.941	-0.063	-0.145	-0.088	60.000	43.160	51.935	43.940	58.435	4.731	6.547	6.170	29.186	-0.665	-0.065	0.927	60.000	41.600	52.130	38.285	64.935	5.468	13.227	12.841	70.211	0.066	-0.126	-0.315	62.000	33.605	46.800	32.500	46.085	10.481	1.316	1.143	11.982	-0.263	-0.144	0.109	NaN	NaN	NaN	NaN	NaN	NaN	NaN	NaN	NaN	NaN	NaN	NaN
61	60.000	61.000	31.720	48.100	22.165	48.750	12.436	9.577	9.577	119.090	-0.065	0.125	0.190	61.000	30.615	50.310	18.330	52.390	13.833	12.460	12.447	172.177	-0.093	0.064	0.150	61.000	34.840	55.835	34.580	56.160	12.562	0.416	0.411	5.163	0.005	-0.051	-0.041	64.000	33.085	54.730	30.485	57.720	13.323	3.962	3.818	50.861	-0.267	0.141	0.416	61.000	32.045	52.780	23.140	57.655	13.239	10.152	10.119	133.962	-0.113	-0.176	-0.057	61.000	42.965	51.090	43.940	58.435	3.885	7.409	6.710	26.072	0.541	NaN	-0.863	61.000	41.600	52.260	38.350	64.870	5.495	13.022	12.687	69.713	-0.154	-0.079	0.126	63.000	33.540	46.735	32.630	46.020	10.611	1.157	0.948	10.060	-0.195	-0.062	0.091	NaN	NaN	NaN	NaN	NaN	NaN	NaN	NaN	NaN	NaN	NaN	NaN
62	61.000	62.000	31.720	48.230	22.035	48.685	12.379	9.696	9.693	119.994	0.117	0.127	0.006	62.000	30.485	50.310	18.395	52.390	13.896	12.268	12.257	170.327	-0.190	-0.064	0.128	62.000	34.840	55.835	34.645	56.160	12.514	0.379	0.363	4.546	-0.048	-0.033	NaN	65.000	33.215	54.600	30.355	57.850	13.088	4.329	4.178	54.680	0.360	0.183	-0.183	62.000	32.110	52.780	23.270	57.590	13.121	10.064	10.036	131.676	-0.083	-0.145	-0.057	62.000	43.160	51.935	43.940	58.565	4.640	6.676	6.348	29.457	-0.362	0.129	0.862	62.000	41.665	52.065	38.415	64.740	5.262	13.085	12.759	67.135	0.072	-0.142	-0.205	64.000	33.670	46.800	32.695	46.085	10.546	1.209	1.013	10.685	0.065	-0.091	-0.143	NaN	NaN	NaN	NaN	NaN	NaN	NaN	NaN	NaN	NaN	NaN	NaN
63	62.000	63.000	31.395	48.165	21.970	48.685	12.768	9.439	9.439	120.514	-0.255	0.065	0.321	63.000	30.550	50.375	18.330	52.390	13.924	12.385	12.364	172.165	0.107	0.064	-0.054	63.000	34.970	55.705	34.645	56.160	12.422	0.559	0.547	6.794	0.184	NaN	-0.181	66.000	33.280	54.535	30.290	57.915	12.998	4.513	4.356	56.623	0.178	0.092	-0.092	63.000	32.175	52.780	23.400	57.460	13.147	9.945	9.926	130.502	-0.110	-0.176	-0.057	63.000	43.225	51.935	43.940	58.565	4.704	6.668	6.366	29.947	0.018	NaN	0.007	63.000	41.665	52.065	38.415	64.740	5.349	13.085	12.744	68.170	-0.015	NaN	NaN	65.000	33.670	46.735	32.695	46.085	10.485	1.172	1.013	10.626	2.598E-4	NaN	0.036	NaN	NaN	NaN	NaN	NaN	NaN	NaN	NaN	NaN	NaN	NaN	NaN
64	63.000	64.000	31.850	48.230	21.970	48.750	12.379	9.894	9.892	122.457	0.454	0.003	-0.451	64.000	30.615	50.310	18.395	52.390	13.896	12.396	12.384	172.093	0.020	-0.064	-0.075	64.000	34.840	55.770	34.580	56.225	12.567	0.524	0.497	6.249	-0.050	0.089	0.121	67.000	33.215	54.600	30.225	58.045	13.053	4.562	4.389	57.283	0.032	0.141	0.092	64.000	31.915	52.910	23.465	57.395	13.470	9.566	9.546	128.588	-0.380	-0.088	0.291	64.000	42.965	51.090	43.940	58.500	3.905	7.474	6.721	26.250	0.355	-0.064	-0.872	64.000	41.665	52.130	38.415	64.805	5.380	13.085	12.711	68.382	-0.033	0.063	0.063	66.000	33.670	46.735	32.760	46.150	10.485	1.082	0.945	9.903	-0.069	-0.090	NaN	NaN	NaN	NaN	NaN	NaN	NaN	NaN	NaN	NaN	NaN	NaN	NaN
65	64.000	65.000	31.785	48.165	21.970	48.815	12.375	9.836	9.836	121.722	-0.056	0.004	0.061	65.000	30.615	50.375	18.395	52.390	13.847	12.385	12.367	171.239	-0.017	NaN	0.011	65.000	34.905	55.705	34.515	56.290	12.426	0.703	0.681	8.467	0.184	0.090	-0.090	68.000	33.150	54.600	30.225	58.110	13.107	4.569	4.366	57.228	-0.022	0.050	0.042	65.000	32.110	52.845	23.530	57.330	13.207	9.682	9.667	127.663	0.121	-0.088	-0.203	65.000	42.965	51.025	43.940	58.500	3.823	7.538	6.818	26.068	0.097	NaN	-0.064	65.000	41.665	51.935	38.415	64.740	5.177	13.211	12.804	66.290	0.093	-0.063	-0.189	67.000	33.605	46.735	32.695	46.085	10.554	1.118	0.952	10.047	0.007	0.091	0.053	NaN	NaN	NaN	NaN	NaN	NaN	NaN	NaN	NaN	NaN	NaN	NaN
66	65.000	66.000	31.850	48.165	22.035	48.685	12.310	9.829	9.828	120.983	-0.008	-0.072	-0.065	66.000	30.615	50.310	18.395	52.390	13.833	12.396	12.384	171.298	0.017	NaN	-0.011	66.000	34.905	55.770	34.515	56.290	12.470	0.650	0.638	7.960	-0.043	NaN	0.052	69.000	33.085	54.665	30.160	58.110	13.143	4.519	4.336	56.987	-0.030	0.042	0.092	66.000	32.110	52.845	23.790	57.200	13.207	9.391	9.376	123.826	-0.290	-0.291	NaN	66.000	42.965	51.025	44.005	58.500	3.823	7.547	6.798	25.992	-0.020	0.009	NaN	66.000	41.665	51.805	38.415	64.805	5.063	13.400	12.934	65.488	0.129	0.063	-0.126	68.000	33.605	46.670	32.695	46.085	10.559	1.082	0.951	10.039	-0.001	NaN	0.035	NaN	NaN	NaN	NaN	NaN	NaN	NaN	NaN	NaN	NaN	NaN	NaN
67	66.000	67.000	31.980	48.165	21.905	48.685	12.176	10.088	10.088	122.833	0.260	0.130	-0.130	67.000	30.550	50.375	18.395	52.390	13.896	12.321	12.307	171.020	-0.077	NaN	0.075	67.000	34.840	55.900	34.515	56.290	12.562	0.508	0.503	6.316	-0.136	NaN	0.141	70.000	33.215	54.600	30.030	58.240	13.053	4.837	4.659	60.806	0.323	0.183	-0.135	67.000	32.110	52.845	23.855	57.135	13.180	9.303	9.288	122.411	-0.088	-0.088	NaN	67.000	42.965	51.155	43.940	58.500	3.885	7.409	6.710	26.072	-0.088	-0.009	0.129	67.000	41.665	51.805	38.350	64.870	5.007	13.479	13.000	65.086	0.066	0.079	NaN	69.000	33.735	46.735	32.695	46.085	10.360	1.226	1.082	11.213	0.132	NaN	-0.145	NaN	NaN	NaN	NaN	NaN	NaN	NaN	NaN	NaN	NaN	NaN	NaN
68	67.000	68.000	32.110	48.100	21.775	48.685	12.043	10.352	10.352	124.659	0.263	0.130	-0.133	68.000	30.485	50.375	18.395	52.390	13.960	12.257	12.244	170.922	-0.063	NaN	0.064	68.000	34.840	55.900	34.450	56.355	12.562	0.599	0.595	7.470	0.092	0.092	NaN	71.000	33.215	54.600	29.965	58.305	13.017	4.928	4.743	61.740	0.084	0.092	NaN	68.000	32.110	52.910	23.855	57.070	13.207	9.244	9.236	121.980	-0.051	-0.029	0.029	68.000	42.965	51.155	43.940	58.435	3.885	7.345	6.648	25.832	-0.062	-0.064	NaN	68.000	41.665	51.935	38.415	64.675	5.120	13.148	12.727	65.166	-0.272	-0.205	0.126	70.000	33.735	46.800	32.760	46.215	10.420	1.137	1.010	10.520	-0.073	-0.123	-0.033	NaN	NaN	NaN	NaN	NaN	NaN	NaN	NaN	NaN	NaN	NaN	NaN
69	68.000	69.000	32.110	48.100	21.775	48.620	11.978	10.348	10.348	123.945	-0.004	-0.003	NaN	69.000	30.485	50.375	18.395	52.390	13.896	12.257	12.243	170.137	-5.576E-4	NaN	NaN	69.000	34.775	55.965	34.385	56.420	12.606	0.599	0.595	7.499	2.793E-4	0.092	0.092	72.000	33.215	54.535	29.835	58.370	12.982	5.112	4.917	63.831	0.174	0.135	-0.049	69.000	31.785	52.975	23.920	57.070	13.470	8.867	8.853	119.246	-0.384	-0.058	0.318	69.000	42.965	51.090	43.940	58.500	3.804	7.474	6.807	25.895	0.159	0.064	-0.064	69.000	41.730	51.870	38.480	64.675	5.001	13.211	12.838	64.203	0.110	-0.016	-0.079	71.000	33.605	46.735	32.695	46.150	10.559	1.082	0.951	10.039	-0.059	0.090	0.145	NaN	NaN	NaN	NaN	NaN	NaN	NaN	NaN	NaN	NaN	NaN	NaN
70	69.000	70.000	32.045	48.165	21.645	48.620	12.111	10.410	10.409	126.061	0.061	0.130	0.068	70.000	30.485	50.440	18.330	52.390	13.974	12.310	12.291	171.746	0.047	0.064	0.010	70.000	34.775	55.900	34.450	56.420	12.610	0.613	0.590	7.436	-0.005	-0.034	-0.055	73.000	33.215	54.535	29.770	58.500	13.072	5.253	5.044	65.935	0.127	0.141	NaN	70.000	31.720	52.975	23.855	57.070	13.589	8.867	8.851	120.269	-0.002	0.058	0.058	70.000	42.965	51.025	43.940	58.500	3.762	7.538	6.801	25.582	-0.006	NaN	-0.064	70.000	41.665	51.740	38.480	64.675	4.950	13.321	12.799	63.358	-0.039	NaN	-0.111	72.000	33.540	46.670	32.695	46.150	10.629	0.992	0.884	9.392	-0.067	NaN	0.089	NaN	NaN	NaN	NaN	NaN	NaN	NaN	NaN	NaN	NaN	NaN	NaN
71	70.000	71.000	32.110	48.230	21.515	48.750	12.046	10.608	10.607	127.777	0.198	0.136	-0.062	71.000	30.550	50.375	18.330	52.390	13.883	12.385	12.373	171.772	0.082	NaN	-0.075	71.000	34.710	55.965	34.385	56.420	12.658	0.559	0.546	6.908	-0.044	0.038	0.091	74.000	33.280	54.535	29.640	58.435	12.982	5.335	5.171	67.127	0.127	0.041	-0.044	71.000	31.590	53.040	23.985	57.005	13.708	8.577	8.558	117.311	-0.293	-0.145	0.145	71.000	43.160	51.870	43.940	58.500	4.463	6.676	6.299	28.113	-0.502	NaN	0.862	71.000	41.665	51.805	38.415	64.740	4.950	13.337	12.831	63.519	0.032	0.079	0.063	73.000	33.475	46.670	32.630	46.085	10.753	1.028	0.885	9.519	0.002	0.090	0.053	NaN	NaN	NaN	NaN	NaN	NaN	NaN	NaN	NaN	NaN	NaN	NaN
72	71.000	72.000	32.110	48.230	21.385	48.815	12.046	10.741	10.741	129.386	0.134	0.133	NaN	72.000	30.550	50.310	18.395	52.390	13.870	12.332	12.325	170.939	-0.048	-0.064	-0.011	72.000	34.645	56.030	34.385	56.485	12.750	0.524	0.497	6.342	-0.048	0.056	0.089	75.000	33.150	54.535	29.640	58.500	12.982	5.295	5.097	66.164	-0.074	0.049	0.086	72.000	31.720	53.040	23.985	56.940	13.589	8.663	8.652	117.578	0.094	-0.029	-0.116	72.000	43.160	51.935	44.005	58.500	4.526	6.619	6.229	28.193	-0.071	0.008	0.064	72.000	41.665	51.740	38.415	64.675	4.894	13.337	12.807	62.678	-0.024	-0.063	-0.063	74.000	33.345	46.670	32.500	46.085	10.888	1.028	0.888	9.667	0.003	0.107	0.107	NaN	NaN	NaN	NaN	NaN	NaN	NaN	NaN	NaN	NaN	NaN	NaN
73	72.000	73.000	32.045	48.295	21.255	48.815	12.184	10.803	10.800	131.592	0.059	0.130	0.068	73.000	30.615	50.375	18.395	52.455	13.896	12.396	12.384	172.093	0.059	0.011	-0.053	73.000	34.710	55.900	34.385	56.485	12.707	0.669	0.632	8.028	0.134	NaN	-0.145	76.000	33.150	54.600	29.510	58.500	13.161	5.335	5.175	68.107	0.078	0.089	0.048	73.000	31.850	52.910	24.050	56.940	13.503	8.780	8.763	118.334	0.111	-0.058	-0.175	73.000	43.030	51.025	43.940	58.435	3.762	7.466	6.759	25.426	0.531	-0.072	-0.919	73.000	41.665	51.675	38.480	64.610	4.927	13.321	12.730	62.724	-0.077	-0.079	-0.063	75.000	33.345	46.670	32.435	46.020	10.758	1.118	0.958	10.309	0.070	0.091	NaN	NaN	NaN	NaN	NaN	NaN	NaN	NaN	NaN	NaN	NaN	NaN	NaN
74	73.000	74.000	32.045	48.295	21.190	48.750	12.180	10.865	10.862	132.297	0.062	0.062	NaN	74.000	30.680	50.310	18.395	52.390	13.806	12.460	12.452	171.907	0.068	-0.011	-0.075	74.000	34.710	56.030	34.385	56.485	12.750	0.559	0.546	6.959	-0.086	NaN	0.106	77.000	33.215	54.470	29.510	58.500	13.002	5.474	5.286	68.728	0.111	NaN	-0.140	74.000	31.850	52.910	24.505	56.680	13.477	8.256	8.240	111.050	-0.523	-0.524	NaN	74.000	42.965	51.025	43.940	58.500	3.721	7.538	6.728	25.033	-0.032	0.064	-0.008	74.000	41.665	51.740	38.415	64.675	4.927	13.337	12.764	62.889	0.033	0.079	0.063	76.000	33.280	46.605	32.370	46.020	10.953	1.082	0.952	10.432	-0.006	0.055	0.090	NaN	NaN	NaN	NaN	NaN	NaN	NaN	NaN	NaN	NaN	NaN	NaN
75	74.000	75.000	32.045	48.360	21.060	48.685	12.055	10.990	10.981	132.369	0.119	0.128	0.002	75.000	30.485	50.440	18.330	52.455	13.896	12.321	12.307	171.020	-0.145	0.075	0.214	75.000	34.775	55.965	34.320	56.420	12.562	0.643	0.643	8.074	0.097	-1.689E-17	-0.092	78.000	33.085	54.600	29.510	58.565	13.236	5.339	5.142	68.061	-0.144	0.048	0.184	75.000	31.720	52.975	24.700	56.550	13.503	7.878	7.866	106.217	-0.374	-0.233	0.145	75.000	42.965	51.025	43.940	58.500	3.680	7.538	6.837	25.160	0.110	NaN	NaN	75.000	41.665	51.740	38.480	64.675	4.862	13.321	12.817	62.310	0.053	-0.016	NaN	77.000	33.345	46.670	32.305	45.955	10.888	1.262	1.092	11.893	0.140	0.090	-0.090	NaN	NaN	NaN	NaN	NaN	NaN	NaN	NaN	NaN	NaN	NaN	NaN
76	75.000	76.000	32.045	48.360	20.995	48.685	12.189	11.055	11.043	134.609	0.063	0.065	NaN	76.000	30.680	50.375	18.395	52.455	13.833	12.460	12.447	172.177	0.140	-0.064	-0.203	76.000	34.710	55.900	34.385	56.420	12.707	0.613	0.589	7.478	-0.054	-0.034	-0.021	79.000	33.215	54.535	29.445	58.565	13.072	5.518	5.353	69.966	0.210	0.044	-0.136	76.000	31.590	53.040	24.830	56.485	13.793	7.587	7.576	104.501	-0.290	-0.145	0.145	76.000	42.965	51.025	43.940	58.500	3.782	7.538	6.747	25.519	-0.090	NaN	NaN	76.000	41.730	51.675	38.480	64.610	4.894	13.337	12.807	62.678	-0.010	-0.063	-0.079	78.000	33.345	46.670	32.175	45.890	10.953	1.406	1.227	13.436	0.134	0.144	NaN	NaN	NaN	NaN	NaN	NaN	NaN	NaN	NaN	NaN	NaN	NaN	NaN
77	76.000	77.000	32.045	48.425	20.930	48.620	12.189	11.117	11.099	135.280	0.055	0.064	0.001	77.000	30.745	50.375	18.395	52.455	13.756	12.524	12.513	172.118	0.066	NaN	-0.064	77.000	34.775	55.965	34.385	56.420	12.658	0.599	0.594	7.521	0.006	NaN	0.007	80.000	33.215	54.470	29.380	58.695	13.002	5.706	5.500	71.512	0.148	0.140	-0.048	77.000	31.655	52.975	24.960	56.420	13.682	7.529	7.514	102.798	-0.063	-0.145	-0.088	77.000	42.965	51.025	44.005	58.500	3.721	7.547	6.706	24.953	-0.041	0.009	NaN	77.000	41.730	51.870	38.480	64.545	5.007	13.085	12.629	63.227	-0.178	-0.063	0.189	79.000	33.410	46.670	32.045	45.825	10.818	1.605	1.422	15.387	0.196	0.145	-0.055	NaN	NaN	NaN	NaN	NaN	NaN	NaN	NaN	NaN	NaN	NaN	NaN
78	77.000	78.000	32.110	48.360	20.800	48.490	12.184	11.311	11.292	137.583	0.193	0.128	-0.066	78.000	30.810	50.375	18.395	52.390	13.756	12.577	12.563	172.807	0.050	-0.010	-0.064	78.000	34.710	55.965	34.450	56.355	12.755	0.469	0.453	5.780	-0.141	-0.090	0.036	81.000	33.215	54.535	29.380	58.695	13.037	5.658	5.472	71.331	-0.029	NaN	0.048	78.000	31.785	52.910	25.025	56.420	13.596	7.617	7.598	103.301	0.084	-0.058	-0.145	78.000	42.965	50.960	44.005	58.500	3.682	7.611	6.687	24.623	-0.019	NaN	-0.064	78.000	41.730	51.740	38.480	64.545	4.927	13.211	12.652	62.340	0.024	NaN	-0.126	80.000	33.540	46.735	32.045	45.890	10.688	1.717	1.553	16.596	0.130	-0.032	-0.145	NaN	NaN	NaN	NaN	NaN	NaN	NaN	NaN	NaN	NaN	NaN	NaN
79	78.000	79.000	32.045	48.295	20.670	48.490	12.184	11.377	11.361	138.428	0.069	0.130	0.064	79.000	30.745	50.375	18.460	52.390	13.769	12.449	12.433	171.189	-0.130	-0.064	0.064	79.000	34.775	55.900	34.450	56.355	12.658	0.559	0.546	6.908	0.093	NaN	-0.091	82.000	33.280	54.470	29.315	58.825	12.947	5.890	5.684	73.587	0.212	0.140	-0.092	79.000	31.785	52.845	25.025	56.355	13.537	7.617	7.599	102.862	0.001	-0.030	-0.030	79.000	42.965	51.025	43.940	58.500	3.782	7.538	6.747	25.519	0.060	-0.008	0.064	79.000	41.795	51.740	38.480	64.610	4.918	13.290	12.847	63.185	0.195	0.063	-0.016	81.000	33.735	46.800	32.045	45.825	10.489	1.951	1.753	18.383	0.200	0.032	-0.201	NaN	NaN	NaN	NaN	NaN	NaN	NaN	NaN	NaN	NaN	NaN	NaN
80	79.000	80.000	32.045	48.360	20.605	48.425	12.184	11.440	11.417	139.108	0.056	0.065	3.693E-4	80.000	30.680	50.505	18.525	52.390	13.847	12.300	12.275	169.972	-0.157	-0.064	0.084	80.000	34.710	55.965	34.515	56.290	12.707	0.379	0.362	4.597	-0.184	-0.089	0.089	83.000	32.500	55.120	29.315	58.825	13.919	4.886	4.684	65.200	-1.000	NaN	1.001	80.000	31.655	52.975	25.025	56.355	13.682	7.442	7.428	101.628	-0.171	NaN	0.175	80.000	42.965	50.960	43.940	58.435	3.660	7.538	6.707	24.547	-0.039	-0.064	-0.064	80.000	41.730	51.805	38.480	64.545	4.950	13.148	12.662	62.682	-0.185	-0.063	0.079	82.000	33.865	46.800	32.110	45.890	10.360	1.977	1.814	18.789	0.061	-0.088	-0.115	NaN	NaN	NaN	NaN	NaN	NaN	NaN	NaN	NaN	NaN	NaN	NaN
81	80.000	81.000	32.045	48.360	20.410	48.360	12.184	11.635	11.607	141.423	0.190	0.195	NaN	81.000	30.680	50.505	18.850	52.390	13.847	11.979	11.958	165.578	-0.317	-0.321	NaN	81.000	34.710	55.965	34.450	56.355	12.707	0.469	0.454	5.763	0.092	0.090	NaN	84.000	32.565	55.120	29.250	58.890	13.990	5.020	4.839	67.701	0.155	0.092	-0.043	81.000	31.785	52.910	25.025	56.355	13.537	7.587	7.573	102.511	0.145	NaN	-0.145	81.000	43.160	51.675	43.940	58.435	4.288	6.805	6.369	27.310	-0.339	NaN	0.733	81.000	41.730	51.675	38.480	64.545	4.838	13.274	12.726	61.567	0.063	NaN	-0.126	83.000	33.865	46.800	32.175	45.890	10.364	1.919	1.754	18.176	-0.060	-0.057	NaN	NaN	NaN	NaN	NaN	NaN	NaN	NaN	NaN	NaN	NaN	NaN	NaN
82	81.000	82.000	32.110	48.425	20.280	48.360	12.124	11.830	11.792	142.966	0.185	0.130	-0.065	82.000	30.680	50.440	19.110	52.325	13.833	11.723	11.707	161.940	-0.251	-0.267	-0.010	82.000	34.645	56.030	34.450	56.355	12.799	0.379	0.362	4.631	-0.092	NaN	0.089	85.000	32.695	54.990	29.120	58.955	13.720	5.339	5.158	70.769	0.319	0.135	-0.184	82.000	31.980	52.845	25.025	56.355	13.332	7.791	7.778	103.698	0.205	NaN	-0.203	82.000	42.965	51.090	43.875	58.305	3.782	7.272	6.522	24.670	0.153	-0.137	-0.605	82.000	41.730	51.805	38.545	64.415	4.950	13.006	12.517	61.964	-0.208	-0.142	0.126	84.000	33.800	46.800	32.110	45.890	10.485	1.919	1.743	18.277	-0.011	0.057	0.057	NaN	NaN	NaN	NaN	NaN	NaN	NaN	NaN	NaN	NaN	NaN	NaN
83	82.000	83.000	32.110	48.425	20.280	48.360	12.119	11.830	11.797	142.970	0.005	NaN	NaN	83.000	30.745	50.375	30.550	50.310	13.742	0.206	0.178	2.442	-11.529	-10.216	-0.041	83.000	34.580	56.095	34.515	56.355	12.847	0.268	0.221	2.839	-0.141	-0.016	0.079	86.000	32.890	54.795	28.990	59.150	13.415	5.846	5.630	75.530	0.472	0.232	-0.275	83.000	31.850	52.910	25.025	56.355	13.451	7.645	7.631	102.651	-0.147	NaN	0.145	83.000	42.965	51.025	43.940	58.305	3.660	7.345	6.524	23.875	0.002	0.009	-0.064	83.000	41.795	51.675	38.545	64.480	4.749	13.211	12.687	60.253	0.170	0.063	-0.142	85.000	33.865	46.800	32.175	45.890	10.360	1.919	1.749	18.117	0.006	-0.057	-0.057	NaN	NaN	NaN	NaN	NaN	NaN	NaN	NaN	NaN	NaN	NaN	NaN
84	83.000	84.000	32.175	48.425	20.085	48.295	12.129	12.091	12.040	146.041	0.244	0.196	-0.065	84.000	30.810	50.375	19.760	52.390	13.769	11.232	11.226	154.572	11.048	10.988	-0.064	84.000	34.710	56.030	34.515	56.355	12.842	0.379	0.362	4.652	0.141	NaN	-0.123	87.000	32.955	54.730	28.925	59.215	13.361	6.030	5.814	77.677	0.184	0.092	-0.092	84.000	31.785	52.910	25.025	56.420	13.622	7.617	7.600	103.529	-0.031	0.030	0.058	84.000	42.965	51.025	43.940	58.305	3.804	7.345	6.508	24.759	-0.015	NaN	NaN	84.000	41.730	51.935	38.545	64.480	5.152	12.943	12.488	64.338	-0.199	NaN	0.268	86.000	33.930	46.865	32.110	45.890	10.295	2.065	1.883	19.389	0.135	0.057	-0.088	NaN	NaN	NaN	NaN	NaN	NaN	NaN	NaN	NaN	NaN	NaN	NaN
85	84.000	85.000	32.110	48.360	19.955	48.230	12.119	12.156	12.116	146.844	0.076	0.131	0.066	85.000	30.745	50.505	19.955	52.325	13.783	10.942	10.928	150.621	-0.298	-0.203	0.086	85.000	34.645	56.095	34.450	56.355	12.842	0.325	0.319	4.094	-0.043	0.039	0.091	88.000	33.020	54.730	28.925	59.215	13.053	6.073	5.883	76.785	0.069	NaN	-0.044	85.000	31.850	52.910	25.025	56.355	13.477	7.645	7.633	102.875	0.033	-0.029	-0.058	85.000	42.965	50.960	43.940	58.370	3.660	7.474	6.646	24.323	0.138	0.064	-0.064	85.000	41.795	51.545	38.545	64.480	4.693	13.337	12.773	59.944	0.285	NaN	-0.394	87.000	33.995	46.865	32.175	45.955	10.226	2.035	1.874	19.165	-0.009	-0.087	-0.058	NaN	NaN	NaN	NaN	NaN	NaN	NaN	NaN	NaN	NaN	NaN	NaN
86	85.000	86.000	32.110	48.360	19.955	48.230	12.115	12.156	12.121	146.853	0.005	NaN	NaN	86.000	30.745	50.440	20.215	52.325	13.756	10.697	10.692	147.072	-0.236	-0.256	-0.011	86.000	34.580	56.095	34.385	56.420	12.847	0.379	0.361	4.643	0.043	0.089	0.033	89.000	33.215	54.535	28.795	59.345	13.037	6.532	6.315	82.320	0.432	0.184	-0.276	86.000	31.590	52.975	25.025	56.355	13.716	7.384	7.365	101.020	-0.268	NaN	0.261	86.000	42.965	51.025	43.940	58.370	3.660	7.409	6.585	24.099	-0.061	NaN	0.064	86.000	41.730	51.740	38.545	64.415	4.838	13.069	12.525	60.595	-0.248	-0.063	0.205	88.000	33.995	46.865	32.240	46.020	9.971	1.948	1.811	18.058	-0.063	-0.087	NaN	NaN	NaN	NaN	NaN	NaN	NaN	NaN	NaN	NaN	NaN	NaN	NaN
87	86.000	87.000	32.045	48.295	19.890	48.230	12.180	12.155	12.126	147.693	0.004	0.065	0.065	87.000	30.745	50.505	20.215	52.325	13.783	10.686	10.674	147.123	-0.018	NaN	0.011	87.000	34.645	56.095	34.320	56.485	12.842	0.508	0.502	6.452	0.141	0.092	-0.042	90.000	33.215	54.535	28.730	59.410	12.947	6.624	6.402	82.882	0.087	0.092	NaN	87.000	31.915	52.910	25.025	56.355	13.417	7.703	7.694	103.229	0.328	NaN	-0.320	87.000	42.965	51.025	43.940	58.305	3.721	7.345	6.544	24.349	-0.041	-0.064	NaN	87.000	41.730	51.675	38.545	64.415	4.838	13.132	12.581	60.865	0.056	NaN	-0.063	89.000	33.995	46.865	32.240	46.085	10.226	1.921	1.801	18.417	-0.010	-0.026	NaN	NaN	NaN	NaN	NaN	NaN	NaN	NaN	NaN	NaN	NaN	NaN	NaN
88	87.000	88.000	32.110	48.360	19.695	48.165	11.856	12.417	12.375	146.717	0.249	0.196	-0.066	88.000	30.160	50.765	20.215	52.325	14.143	10.067	10.041	142.011	-0.633	NaN	0.618	88.000	34.580	56.095	34.320	56.550	12.654	0.524	0.499	6.308	-0.004	0.056	0.032	91.000	33.215	54.600	28.600	59.540	12.963	6.760	6.565	85.096	0.163	0.184	0.047	88.000	31.785	52.910	24.960	56.420	13.272	7.675	7.660	101.666	-0.034	0.088	0.116	88.000	43.225	51.740	43.940	58.305	4.221	6.604	6.349	26.799	-0.195	NaN	0.739	88.000	41.730	51.740	38.545	64.415	4.711	13.069	12.688	59.767	0.107	NaN	0.063	90.000	34.060	46.930	32.370	46.085	10.096	1.889	1.741	17.576	-0.060	-0.116	-0.087	NaN	NaN	NaN	NaN	NaN	NaN	NaN	NaN	NaN	NaN	NaN	NaN
89	88.000	89.000	32.110	48.360	19.565	48.100	12.119	12.548	12.496	151.449	0.121	0.131	NaN	NaN	NaN	NaN	NaN	NaN	NaN	NaN	NaN	NaN	NaN	NaN	NaN	89.000	34.580	56.095	34.320	56.550	12.890	0.524	0.497	6.405	-0.002	NaN	NaN	92.000	33.345	54.470	28.470	59.670	12.747	7.128	6.912	88.112	0.347	0.184	-0.184	89.000	31.785	52.910	24.960	56.420	13.537	7.675	7.658	103.669	-0.002	NaN	NaN	89.000	42.965	51.025	43.940	58.240	3.721	7.281	6.482	24.121	0.133	-0.064	-0.743	89.000	41.665	51.545	38.545	64.415	4.761	13.243	12.555	59.775	-0.133	NaN	-0.174	91.000	33.995	46.995	32.435	46.215	10.088	1.744	1.598	16.123	-0.143	-0.116	0.029	NaN	NaN	NaN	NaN	NaN	NaN	NaN	NaN	NaN	NaN	NaN	NaN
90	89.000	90.000	32.045	48.295	19.565	48.165	12.111	12.481	12.451	150.790	-0.046	-6.770E-4	0.066	90.000	30.550	50.505	20.215	52.325	13.896	10.494	10.487	145.724	10.487	NaN	NaN	90.000	34.515	56.160	34.320	56.550	12.890	0.436	0.405	5.222	-0.092	NaN	0.087	93.000	33.280	54.535	28.405	59.670	12.386	7.081	6.927	85.797	0.015	0.045	0.092	90.000	31.785	52.910	25.025	56.420	13.451	7.617	7.597	102.194	-0.061	-0.058	NaN	90.000	42.965	51.025	43.940	58.305	3.638	7.345	6.580	23.939	0.097	0.064	NaN	90.000	41.665	51.870	38.545	64.350	4.950	12.864	12.372	61.246	-0.183	-0.063	0.315	92.000	33.995	46.930	32.565	46.215	10.096	1.599	1.473	14.872	-0.125	-0.116	0.029	NaN	NaN	NaN	NaN	NaN	NaN	NaN	NaN	NaN	NaN	NaN	NaN
91	90.000	91.000	32.110	48.425	19.565	48.230	11.995	12.547	12.494	149.861	0.043	-0.001	-0.067	91.000	30.485	50.700	20.215	52.325	13.953	10.398	10.370	144.694	-0.117	NaN	0.095	91.000	34.580	56.030	34.255	56.615	12.750	0.669	0.633	8.066	0.227	0.088	-0.145	94.000	33.280	54.535	28.470	59.735	12.350	7.084	6.903	85.252	-0.024	0.004	NaN	91.000	31.720	52.845	24.960	56.355	13.451	7.617	7.597	102.194	-4.441E-15	0.028	0.028	91.000	42.965	51.025	43.940	58.370	3.680	7.409	6.713	24.704	0.133	0.064	NaN	91.000	41.730	51.740	38.480	64.415	4.830	13.085	12.663	61.157	0.290	0.079	-0.142	93.000	33.995	46.930	32.695	46.345	9.508	1.426	1.334	12.679	-0.140	-0.172	NaN	NaN	NaN	NaN	NaN	NaN	NaN	NaN	NaN	NaN	NaN	NaN	NaN
92	91.000	92.000	32.175	48.425	19.565	48.230	11.925	12.612	12.564	149.831	0.070	NaN	-0.065	92.000	30.485	50.830	20.215	52.325	13.968	10.378	10.336	144.377	-0.034	NaN	0.019	92.000	34.515	56.160	34.255	56.615	12.842	0.524	0.497	6.388	-0.135	NaN	0.145	95.000	33.345	54.535	28.405	59.670	12.370	7.125	6.991	86.473	0.087	-0.002	-0.045	92.000	31.720	52.845	25.025	56.420	13.425	7.590	7.561	101.506	-0.037	-0.027	NaN	92.000	42.965	51.025	43.940	58.305	3.618	7.345	6.634	24.002	-0.079	-0.064	NaN	92.000	41.665	51.675	38.545	64.415	4.749	13.116	12.566	59.674	-0.097	-0.015	-0.048	94.000	34.060	46.865	32.760	46.345	9.452	1.400	1.336	12.624	0.002	-0.060	-0.036	NaN	NaN	NaN	NaN	NaN	NaN	NaN	NaN	NaN	NaN	NaN	NaN
93	92.000	93.000	32.045	48.360	19.565	48.230	11.471	12.481	12.437	142.661	-0.128	NaN	0.131	93.000	30.485	50.765	20.215	52.325	13.400	10.388	10.342	138.580	0.006	NaN	-0.010	93.000	34.645	56.030	34.190	56.680	12.274	0.793	0.779	9.557	0.281	0.091	-0.181	96.000	33.215	54.600	28.405	59.670	12.800	6.989	6.812	87.196	-0.178	NaN	0.137	93.000	29.380	54.210	24.960	56.355	15.613	4.913	4.913	76.705	-2.648	0.030	2.701	93.000	42.965	51.025	43.875	58.305	3.548	7.337	7.068	25.080	0.434	-0.008	NaN	93.000	41.665	51.870	38.545	64.350	4.720	12.864	12.718	60.029	0.152	-0.063	0.189	95.000	33.930	46.865	32.760	46.345	9.573	1.280	1.200	11.484	-0.136	NaN	0.119	NaN	NaN	NaN	NaN	NaN	NaN	NaN	NaN	NaN	NaN	NaN	NaN
94	93.000	94.000	32.045	48.360	19.565	48.230	11.467	12.481	12.442	142.670	0.006	NaN	NaN	NaN	NaN	NaN	NaN	NaN	NaN	NaN	NaN	NaN	NaN	NaN	NaN	94.000	34.580	56.095	34.190	56.615	12.321	0.650	0.641	7.901	-0.137	-0.052	0.091	97.000	33.280	54.535	28.340	59.670	12.333	7.125	6.985	86.139	0.172	0.045	-0.092	94.000	29.315	54.145	24.960	56.420	15.617	4.913	4.908	76.646	-0.005	0.030	0.028	94.000	42.965	50.960	43.940	58.305	3.420	7.409	7.111	24.319	0.043	0.009	-0.064	94.000	41.600	51.675	38.545	64.415	4.508	13.101	12.850	57.929	0.132	0.063	-0.174	96.000	33.995	46.865	32.825	46.345	9.901	1.280	1.202	11.898	0.002	-0.059	-0.059	NaN	NaN	NaN	NaN	NaN	NaN	NaN	NaN	NaN	NaN	NaN	NaN
95	94.000	95.000	32.045	48.360	19.370	48.295	11.476	12.675	12.630	144.943	0.188	0.195	NaN	NaN	NaN	NaN	NaN	NaN	NaN	NaN	NaN	NaN	NaN	NaN	NaN	95.000	34.645	55.965	34.255	56.550	12.274	0.703	0.687	8.429	0.045	-0.090	-0.144	98.000	33.280	54.535	28.340	59.735	12.620	7.172	6.988	88.184	0.003	0.047	NaN	95.000	29.315	54.210	24.895	56.420	15.700	4.942	4.941	77.571	0.033	0.058	0.029	95.000	42.965	51.025	43.940	58.305	3.613	7.345	7.064	25.519	-0.047	NaN	0.064	95.000	41.665	51.935	38.545	64.480	4.840	12.927	12.798	61.943	-0.053	0.063	0.237	97.000	33.930	46.865	32.825	46.280	9.512	1.250	1.142	10.867	-0.059	0.030	0.057	NaN	NaN	NaN	NaN	NaN	NaN	NaN	NaN	NaN	NaN	NaN	NaN
96	95.000	96.000	32.045	48.360	19.370	48.295	11.860	12.675	12.638	149.890	0.008	NaN	NaN	96.000	30.745	50.960	20.215	52.325	13.574	10.618	10.532	142.961	10.532	10.352	-0.064	96.000	34.645	56.030	34.255	56.615	12.558	0.703	0.683	8.581	-0.003	0.054	0.054	99.000	33.345	54.470	28.340	59.670	12.565	7.217	7.047	88.543	0.059	-0.047	-0.092	96.000	30.160	53.755	24.765	56.550	15.068	6.076	6.068	91.433	1.127	0.175	-0.960	96.000	42.965	51.025	43.940	58.305	3.626	7.345	6.802	24.666	-0.262	NaN	NaN	96.000	41.730	51.935	38.545	64.415	4.913	12.880	12.618	61.993	-0.179	-0.063	-0.016	98.000	33.735	46.800	32.825	46.345	10.105	1.017	0.942	9.523	-0.200	-0.029	0.203	NaN	NaN	NaN	NaN	NaN	NaN	NaN	NaN	NaN	NaN	NaN	NaN
97	96.000	97.000	31.785	48.360	19.370	48.165	11.666	12.417	12.368	144.284	-0.270	0.002	0.260	97.000	30.745	50.960	20.215	52.325	13.135	10.618	10.519	138.170	-0.012	NaN	NaN	97.000	34.645	55.965	34.255	56.550	12.182	0.703	0.687	8.366	0.003	-0.054	-0.054	100.000	33.215	54.535	28.275	59.735	12.548	7.172	7.004	87.880	-0.043	0.092	0.137	97.000	29.120	54.340	24.570	56.615	15.845	5.087	5.086	80.592	-0.982	0.203	1.192	97.000	42.965	51.025	43.940	58.370	3.539	7.409	7.159	25.337	0.356	0.064	NaN	97.000	41.665	51.740	38.545	64.415	4.575	13.053	12.902	59.027	0.284	NaN	-0.174	99.000	33.865	46.865	32.760	46.280	9.966	1.250	1.141	11.369	0.198	0.088	-0.145	NaN	NaN	NaN	NaN	NaN	NaN	NaN	NaN	NaN	NaN	NaN	NaN
98	97.000	98.000	31.980	48.425	19.370	48.165	11.860	12.613	12.559	148.957	0.191	NaN	-0.196	98.000	30.420	50.830	20.215	52.325	13.779	10.314	10.270	141.504	-0.250	NaN	0.303	98.000	34.515	56.095	34.255	56.550	12.606	0.524	0.499	6.291	-0.188	NaN	0.177	101.000	33.280	54.470	28.275	59.800	12.565	7.312	7.119	89.447	0.115	0.047	-0.092	98.000	30.030	53.820	24.570	56.680	15.127	6.164	6.154	93.085	1.067	0.030	-1.047	98.000	43.030	51.025	43.940	58.305	3.532	7.337	6.899	24.370	-0.259	-0.064	0.008	98.000	41.665	51.675	38.545	64.415	4.623	13.116	12.733	58.863	-0.169	NaN	-0.063	100.000	33.800	46.800	32.760	46.280	9.841	1.163	1.075	10.579	-0.066	NaN	0.087	NaN	NaN	NaN	NaN	NaN	NaN	NaN	NaN	NaN	NaN	NaN	NaN
99	98.000	99.000	31.850	48.490	19.305	48.100	12.000	12.551	12.472	149.658	-0.088	0.067	0.128	99.000	29.900	50.895	20.215	52.325	14.315	9.790	9.749	139.552	-0.521	NaN	0.524	99.000	34.580	55.965	34.255	56.615	12.514	0.727	0.679	8.492	0.180	0.058	-0.145	102.000	33.410	54.405	28.340	59.735	12.584	7.356	7.161	90.111	0.042	-0.092	-0.137	99.000	30.355	53.625	24.505	56.680	14.777	6.600	6.590	97.378	0.436	0.058	-0.378	99.000	43.030	51.025	43.940	58.305	3.596	7.337	6.909	24.843	0.010	NaN	NaN	99.000	41.730	51.805	38.545	64.350	4.768	12.943	12.678	60.443	-0.055	-0.063	0.110	101.000	33.735	46.865	32.630	46.215	10.031	1.282	1.145	11.484	0.070	0.145	0.023	NaN	NaN	NaN	NaN	NaN	NaN	NaN	NaN	NaN	NaN	NaN	NaN
100	99.000	100.000	31.850	48.620	19.240	48.100	11.817	12.621	12.506	147.782	0.034	0.065	-0.005	100.000	29.510	50.895	20.215	52.325	14.504	9.404	9.372	135.939	-0.376	NaN	0.385	100.000	34.645	55.965	34.190	56.680	12.323	0.847	0.821	10.123	0.143	0.090	-0.035	103.000	33.345	54.405	28.340	59.670	12.767	7.264	7.044	89.938	-0.116	-0.047	0.045	100.000	30.355	53.625	24.440	56.745	14.600	6.687	6.678	97.496	0.088	0.088	NaN	100.000	42.965	51.025	43.940	58.305	3.570	7.345	6.981	24.919	0.072	NaN	-0.009	100.000	41.730	51.870	38.545	64.415	4.745	12.943	12.778	60.637	0.100	0.063	0.063	102.000	33.540	46.735	32.630	46.215	10.429	1.048	0.946	9.870	-0.198	NaN	0.234	NaN	NaN	NaN	NaN	NaN	NaN	NaN	NaN	NaN	NaN	NaN	NaN
101	100.000	101.000	31.980	48.620	19.045	48.035	11.817	12.948	12.824	151.534	0.317	0.198	-0.130	101.000	29.770	50.895	20.215	52.325	14.378	9.661	9.623	138.365	0.251	NaN	-0.257	101.000	34.645	56.030	34.125	56.810	12.463	0.937	0.913	11.374	0.091	0.144	0.054	104.000	33.280	54.405	28.405	59.670	12.331	7.175	6.974	86.000	-0.070	-0.044	0.044	101.000	30.485	53.560	24.440	56.810	14.573	6.863	6.849	99.803	0.171	0.031	-0.145	101.000	42.965	50.960	43.940	58.305	3.532	7.409	6.948	24.543	-0.032	NaN	-0.064	101.000	41.730	51.935	38.545	64.415	4.858	12.880	12.677	61.579	-0.101	NaN	0.063	103.000	33.410	46.670	32.565	46.215	10.764	0.960	0.880	9.477	-0.066	0.057	0.145	NaN	NaN	NaN	NaN	NaN	NaN	NaN	NaN	NaN	NaN	NaN	NaN
102	101.000	102.000	32.045	48.620	18.850	47.970	11.946	13.211	13.078	156.236	0.255	0.198	-0.065	102.000	30.160	50.830	20.280	52.325	14.173	9.992	9.956	141.102	0.332	-0.064	-0.395	102.000	34.645	56.030	34.125	56.810	12.606	0.937	0.910	11.475	-0.002	NaN	NaN	105.000	33.280	54.470	28.405	59.670	12.892	7.128	6.910	89.084	-0.064	NaN	0.047	102.000	30.680	53.430	24.440	56.745	14.519	7.066	7.049	102.351	0.201	-0.030	-0.233	102.000	43.030	51.025	43.940	58.370	3.626	7.401	6.882	24.953	-0.067	0.065	0.072	102.000	41.730	51.740	38.545	64.415	4.768	13.069	12.708	60.591	0.031	NaN	-0.189	104.000	33.410	46.605	32.500	46.150	10.187	1.017	0.949	9.671	0.069	0.087	0.029	NaN	NaN	NaN	NaN	NaN	NaN	NaN	NaN	NaN	NaN	NaN	NaN
103	102.000	103.000	32.045	48.620	18.785	47.905	12.135	13.279	13.150	159.570	0.072	0.068	NaN	NaN	NaN	NaN	NaN	NaN	NaN	NaN	NaN	NaN	NaN	NaN	NaN	103.000	34.645	56.095	34.125	56.810	12.750	0.884	0.865	11.023	-0.046	NaN	0.053	106.000	33.280	54.405	28.340	59.670	12.529	7.220	7.021	87.973	0.111	0.044	-0.047	103.000	30.680	53.495	24.375	56.745	14.698	7.093	7.080	104.058	0.031	0.058	0.030	103.000	43.030	51.025	43.940	58.305	3.618	7.337	6.654	24.074	-0.227	-0.064	NaN	103.000	41.795	51.740	38.545	64.415	4.773	13.085	12.641	60.333	-0.067	NaN	-0.016	105.000	33.410	46.605	32.305	46.150	10.764	1.195	1.140	12.265	0.190	0.180	NaN	NaN	NaN	NaN	NaN	NaN	NaN	NaN	NaN	NaN	NaN	NaN	NaN
104	103.000	104.000	32.110	48.555	18.720	47.905	11.481	13.406	13.286	152.548	0.137	0.065	-0.062	104.000	29.380	50.765	20.280	52.325	14.524	9.233	9.221	133.916	9.221	NaN	NaN	104.000	34.580	56.095	34.060	56.810	12.368	0.884	0.869	10.753	0.005	0.038	0.038	107.000	33.280	54.405	28.405	59.605	12.877	7.128	6.890	88.725	-0.131	-0.092	NaN	104.000	31.005	53.300	24.310	56.810	13.788	7.559	7.548	104.066	0.468	0.088	-0.378	104.000	42.965	51.025	43.940	58.305	3.494	7.345	7.014	24.509	0.360	NaN	-0.009	104.000	41.730	52.000	38.545	64.415	4.780	12.817	12.693	60.671	0.052	NaN	0.268	106.000	33.475	46.735	32.305	46.150	10.300	1.308	1.211	12.472	0.071	NaN	-0.116	NaN	NaN	NaN	NaN	NaN	NaN	NaN	NaN	NaN	NaN	NaN	NaN
105	104.000	105.000	31.915	48.620	18.590	47.840	12.270	13.348	13.201	161.970	-0.086	0.134	0.191	105.000	30.550	50.440	20.215	52.325	13.896	10.505	10.500	145.915	1.280	0.064	-1.209	105.000	34.645	56.030	33.995	56.940	12.750	1.118	1.092	13.917	0.222	0.144	-0.091	108.000	33.215	54.470	28.405	59.540	12.857	6.989	6.778	87.145	-0.112	-0.047	0.092	105.000	31.070	53.235	24.245	56.875	14.262	7.735	7.712	109.989	0.164	0.088	-0.088	105.000	42.965	51.025	43.940	58.305	3.700	7.345	6.598	24.412	-0.416	NaN	NaN	105.000	41.730	51.935	38.545	64.350	5.032	12.817	12.427	62.534	-0.265	-0.063	-0.063	107.000	33.540	46.735	32.370	46.215	10.693	1.280	1.207	12.912	-0.004	-0.086	-0.059	NaN	NaN	NaN	NaN	NaN	NaN	NaN	NaN	NaN	NaN	NaN	NaN
106	105.000	106.000	31.980	48.685	18.590	47.840	11.823	13.417	13.241	156.545	0.040	NaN	-0.069	106.000	29.835	50.700	20.280	52.325	14.270	9.692	9.677	138.086	-0.824	-0.064	0.748	106.000	34.645	56.030	33.930	57.070	12.463	1.262	1.233	15.362	0.141	0.144	NaN	109.000	33.150	54.600	28.470	59.540	12.783	6.805	6.614	84.551	-0.164	-0.045	0.139	106.000	31.135	53.300	24.180	56.875	13.874	7.820	7.812	108.384	0.100	0.058	-0.028	106.000	42.965	50.960	43.940	58.305	3.532	7.409	6.948	24.543	0.350	NaN	-0.064	106.000	41.665	51.740	38.545	64.350	4.709	12.990	12.691	59.767	0.264	NaN	-0.174	108.000	33.540	46.735	32.305	46.280	10.564	1.316	1.267	13.389	0.060	0.039	NaN	NaN	NaN	NaN	NaN	NaN	NaN	NaN	NaN	NaN	NaN	NaN	NaN
107	106.000	107.000	31.460	48.685	18.590	47.840	12.788	12.898	12.749	163.030	-0.492	NaN	0.519	NaN	NaN	NaN	NaN	NaN	NaN	NaN	NaN	NaN	NaN	NaN	NaN	107.000	34.645	56.030	33.800	57.070	12.755	1.340	1.322	16.862	0.089	0.082	NaN	110.000	33.150	54.600	28.470	59.475	12.892	6.758	6.571	84.707	-0.044	-0.047	NaN	107.000	31.460	53.040	24.115	56.940	13.861	8.316	8.287	114.869	0.475	0.088	-0.409	107.000	43.160	51.935	43.940	58.305	4.477	6.418	6.015	26.930	-0.934	NaN	0.991	107.000	41.730	51.805	38.545	64.415	4.894	13.006	12.494	61.144	-0.198	0.063	0.047	109.000	33.540	46.735	32.370	46.215	10.375	1.280	1.211	12.565	-0.056	-0.033	NaN	NaN	NaN	NaN	NaN	NaN	NaN	NaN	NaN	NaN	NaN	NaN	NaN
108	107.000	108.000	31.655	48.815	18.525	47.840	12.476	13.166	12.969	161.805	0.220	0.065	-0.204	108.000	30.485	50.570	20.280	52.325	13.910	10.355	10.344	143.882	10.344	NaN	NaN	108.000	34.645	56.030	33.800	57.135	12.658	1.391	1.367	17.301	0.045	0.052	NaN	111.000	33.150	54.600	28.600	59.345	12.927	6.574	6.397	82.700	-0.173	-0.184	NaN	108.000	31.330	53.105	24.050	57.005	13.886	8.259	8.231	114.295	-0.057	0.088	0.145	108.000	43.160	52.000	43.940	58.305	4.513	6.353	6.018	27.158	0.004	NaN	0.065	108.000	41.665	51.740	38.545	64.350	4.805	12.990	12.478	59.961	-0.015	-0.063	-0.047	110.000	33.605	46.735	32.370	46.215	10.440	1.340	1.276	13.317	0.065	NaN	-0.060	NaN	NaN	NaN	NaN	NaN	NaN	NaN	NaN	NaN	NaN	NaN	NaN
109	108.000	109.000	31.590	48.750	18.460	47.840	12.335	13.161	12.996	160.297	0.027	0.065	0.069	109.000	30.095	50.505	20.280	52.325	14.074	9.982	9.980	140.456	-0.364	NaN	0.372	109.000	34.580	56.095	33.605	57.330	12.562	1.573	1.552	19.498	0.185	0.274	0.091	112.000	33.215	54.470	28.795	59.215	12.857	6.485	6.275	80.672	-0.123	-0.228	-0.139	109.000	31.330	53.040	23.985	57.005	13.656	8.347	8.314	113.534	0.083	0.057	-0.031	109.000	43.225	51.740	43.940	58.370	4.146	6.668	6.436	26.685	0.418	0.065	-0.252	109.000	41.600	52.000	38.545	64.350	4.913	12.722	12.361	60.734	-0.118	NaN	0.268	111.000	33.410	46.670	32.370	46.280	10.634	1.111	1.070	11.374	-0.206	-0.023	0.205	NaN	NaN	NaN	NaN	NaN	NaN	NaN	NaN	NaN	NaN	NaN	NaN
110	109.000	110.000	31.720	48.815	18.590	47.905	12.341	13.161	12.985	160.237	-0.011	-0.134	-0.134	110.000	30.290	50.440	20.280	52.325	13.997	10.186	10.185	142.556	0.205	NaN	-0.204	110.000	34.580	56.160	33.540	57.460	12.702	1.665	1.643	20.872	0.091	0.142	0.051	113.000	33.150	54.600	28.990	59.085	12.982	6.117	5.925	76.912	-0.350	-0.228	0.140	110.000	31.590	52.910	23.985	57.005	13.485	8.637	8.600	115.976	0.286	NaN	-0.291	110.000	43.225	51.870	43.940	58.305	4.296	6.475	6.198	26.630	-0.238	-0.065	0.129	110.000	41.665	52.195	38.545	64.415	5.116	12.612	12.294	62.902	-0.067	0.063	0.173	112.000	33.475	46.670	32.435	46.280	10.634	1.111	1.070	11.374	6.883E-15	-0.061	-0.061	NaN	NaN	NaN	NaN	NaN	NaN	NaN	NaN	NaN	NaN	NaN	NaN
111	110.000	111.000	31.720	48.815	18.655	47.905	12.347	13.097	12.908	159.380	-0.076	-0.065	NaN	111.000	30.355	50.440	20.280	52.325	13.946	10.250	10.247	142.915	0.063	NaN	-0.064	111.000	34.645	56.030	33.475	57.460	12.610	1.848	1.827	23.035	0.184	0.041	-0.142	114.000	33.150	54.600	29.120	58.890	12.818	5.886	5.721	73.338	-0.203	-0.231	NaN	111.000	31.590	52.910	23.985	57.070	13.511	8.668	8.629	116.589	0.029	0.031	NaN	111.000	42.965	51.090	43.940	58.305	3.661	7.281	6.641	24.311	0.442	NaN	-0.808	111.000	41.665	52.065	38.545	64.350	5.059	12.675	12.335	62.399	0.041	-0.063	-0.126	113.000	33.475	46.670	32.695	46.280	10.634	0.872	0.811	8.619	-0.259	-0.233	NaN	NaN	NaN	NaN	NaN	NaN	NaN	NaN	NaN	NaN	NaN	NaN	NaN
112	111.000	112.000	31.980	48.750	18.590	47.840	12.146	13.421	13.240	160.820	0.332	0.069	-0.255	112.000	30.355	50.440	20.280	52.325	14.010	10.250	10.248	143.570	2.058E-4	NaN	NaN	112.000	34.645	56.030	33.410	57.590	12.658	1.990	1.961	24.822	0.134	0.142	NaN	115.000	33.020	54.795	29.315	58.825	13.124	5.474	5.318	69.797	-0.403	-0.180	0.232	112.000	31.590	52.910	23.920	57.070	13.571	8.726	8.688	117.894	0.058	0.057	NaN	112.000	43.225	51.870	43.940	58.305	4.372	6.475	6.176	27.002	-0.465	NaN	0.804	112.000	41.665	52.195	38.545	64.415	5.204	12.612	12.279	63.899	-0.056	0.063	0.126	114.000	33.410	46.670	32.695	46.345	10.504	0.785	0.740	7.778	-0.070	-0.027	0.059	NaN	NaN	NaN	NaN	NaN	NaN	NaN	NaN	NaN	NaN	NaN	NaN
113	112.000	113.000	31.915	48.620	18.590	47.840	12.199	13.348	13.210	161.154	-0.030	NaN	0.072	113.000	30.420	50.440	20.410	52.325	13.946	10.186	10.184	142.028	-0.064	-0.128	-0.064	113.000	34.580	56.030	33.410	57.655	12.707	2.002	1.954	24.835	-0.006	0.053	0.038	116.000	33.085	54.730	29.510	58.630	13.107	5.291	5.124	67.156	-0.194	-0.276	-0.092	113.000	31.525	52.975	23.920	57.070	13.656	8.637	8.604	117.497	-0.083	NaN	0.088	113.000	43.225	51.740	43.940	58.305	4.245	6.604	6.291	26.706	0.116	NaN	-0.129	113.000	41.665	52.325	38.545	64.350	5.320	12.423	12.136	64.562	-0.142	-0.063	0.126	115.000	33.345	46.670	32.630	46.345	10.629	0.785	0.739	7.850	-0.002	0.059	0.059	NaN	NaN	NaN	NaN	NaN	NaN	NaN	NaN	NaN	NaN	NaN	NaN
114	113.000	114.000	31.525	48.620	18.590	47.840	12.394	12.958	12.824	158.936	-0.386	NaN	0.389	114.000	30.030	50.700	20.475	52.260	14.192	9.682	9.664	137.156	-0.520	-0.075	0.427	114.000	34.645	56.030	33.280	57.655	12.514	2.122	2.104	26.330	0.150	0.084	-0.042	117.000	33.085	54.730	29.705	58.435	13.216	5.015	4.847	64.059	-0.277	-0.275	NaN	114.000	31.590	52.975	23.790	57.135	13.417	8.840	8.814	118.266	0.210	0.145	-0.057	114.000	43.225	51.870	43.940	58.305	4.339	6.475	6.255	27.141	-0.036	NaN	0.129	114.000	41.535	53.105	38.545	64.350	6.000	11.636	11.521	69.125	-0.616	NaN	0.787	116.000	33.280	46.670	32.695	46.345	10.828	0.669	0.610	6.608	-0.128	-0.057	0.057	NaN	NaN	NaN	NaN	NaN	NaN	NaN	NaN	NaN	NaN	NaN	NaN
115	114.000	115.000	31.785	48.620	18.720	47.905	12.205	13.085	12.947	158.015	0.123	-0.133	-0.260	115.000	30.160	50.700	20.410	52.260	14.143	9.874	9.851	139.324	0.187	0.064	-0.128	115.000	34.580	56.030	33.215	57.720	12.654	2.172	2.147	27.167	0.043	0.091	0.041	118.000	33.020	54.730	29.770	58.370	13.216	4.880	4.703	62.150	-0.144	-0.092	0.043	115.000	31.460	53.040	23.790	57.135	13.648	8.695	8.671	118.346	-0.143	NaN	0.145	115.000	42.965	51.025	43.940	58.305	3.643	7.345	6.753	24.602	0.498	NaN	-0.872	115.000	41.535	52.910	38.545	64.350	5.907	11.824	11.666	68.910	0.146	NaN	-0.189	117.000	33.215	46.735	32.695	46.475	11.017	0.581	0.538	5.932	-0.072	-0.058	0.029	NaN	NaN	NaN	NaN	NaN	NaN	NaN	NaN	NaN	NaN	NaN	NaN
116	115.000	116.000	31.590	48.555	19.500	48.100	12.518	12.099	12.018	150.440	-0.929	-0.787	0.197	116.000	30.355	50.570	20.410	52.260	14.037	10.088	10.077	141.449	0.226	NaN	-0.214	116.000	34.580	56.030	33.150	57.785	12.707	2.264	2.235	28.400	0.088	0.091	NaN	119.000	33.020	54.730	29.965	58.175	13.181	4.604	4.428	58.364	-0.275	-0.275	NaN	116.000	31.460	53.040	23.790	57.200	13.741	8.726	8.691	119.432	0.020	0.031	NaN	116.000	42.965	50.960	43.940	58.305	3.556	7.409	6.678	23.749	-0.075	NaN	-0.064	116.000	41.600	52.390	38.610	64.350	5.407	12.328	12.005	64.913	0.339	-0.016	-0.520	118.000	33.215	46.735	32.695	46.540	10.953	0.555	0.533	5.843	-0.005	-0.023	NaN	NaN	NaN	NaN	NaN	NaN	NaN	NaN	NaN	NaN	NaN	NaN	NaN
117	116.000	117.000	31.915	48.555	19.500	48.100	12.324	12.423	12.340	152.075	0.322	NaN	-0.325	117.000	30.680	50.505	20.410	52.260	13.833	10.419	10.409	143.984	0.332	NaN	-0.331	117.000	34.580	56.095	33.150	57.915	12.847	2.315	2.277	29.254	0.042	0.102	0.051	120.000	33.020	54.730	30.095	58.045	13.271	4.421	4.250	56.404	-0.178	-0.183	NaN	117.000	31.330	53.105	23.725	57.200	14.006	8.637	8.604	120.501	-0.088	0.057	0.145	117.000	43.030	51.025	43.940	58.305	3.638	7.337	6.601	24.015	-0.078	NaN	0.073	117.000	41.600	52.390	38.610	64.350	5.468	12.328	11.943	65.302	-0.062	NaN	NaN	119.000	33.150	46.800	32.825	46.605	11.017	0.379	0.339	3.735	-0.194	-0.145	0.022	NaN	NaN	NaN	NaN	NaN	NaN	NaN	NaN	NaN	NaN	NaN	NaN
118	117.000	118.000	31.720	48.490	19.630	48.100	12.448	12.096	12.029	149.742	-0.311	-0.130	0.197	118.000	30.615	50.505	20.410	52.260	13.833	10.355	10.345	143.105	-0.064	NaN	0.064	118.000	34.515	56.030	33.085	58.045	12.804	2.471	2.404	30.783	0.127	0.144	-0.015	121.000	32.955	54.730	30.225	57.850	13.326	4.146	3.978	53.007	-0.272	-0.232	0.043	118.000	31.395	53.170	23.725	57.200	13.912	8.664	8.643	120.244	0.039	NaN	-0.027	118.000	42.965	50.960	43.940	58.370	3.577	7.474	6.683	23.905	0.083	0.064	-0.073	118.000	41.600	52.065	38.675	64.025	5.152	12.312	11.851	61.055	-0.092	-0.331	-0.316	120.000	33.280	46.800	33.020	46.670	10.948	0.291	0.269	2.941	-0.070	-0.203	-0.116	NaN	NaN	NaN	NaN	NaN	NaN	NaN	NaN	NaN	NaN	NaN	NaN
119	118.000	119.000	31.850	48.490	19.695	48.100	12.314	12.161	12.100	148.995	0.070	-0.065	-0.130	119.000	30.550	50.570	20.410	52.260	13.896	10.280	10.269	142.695	-0.077	NaN	0.075	119.000	34.580	56.160	33.085	58.110	12.799	2.457	2.413	30.889	0.009	0.052	0.064	NaN	NaN	NaN	NaN	NaN	NaN	NaN	NaN	NaN	NaN	NaN	NaN	119.000	31.265	53.170	23.660	57.265	14.006	8.637	8.604	120.501	-0.039	0.088	0.114	119.000	43.030	51.090	43.940	58.305	3.618	7.272	6.592	23.850	-0.091	-0.064	0.137	119.000	41.600	52.000	38.675	64.090	5.039	12.439	11.920	60.067	0.069	0.063	-0.063	121.000	33.345	46.865	33.150	46.670	10.879	0.276	0.207	2.256	-0.061	-0.092	-0.092	NaN	NaN	NaN	NaN	NaN	NaN	NaN	NaN	NaN	NaN	NaN	NaN
120	119.000	120.000	31.720	48.555	19.760	48.165	12.518	11.966	11.893	148.881	-0.206	-0.067	0.128	120.000	30.745	50.505	20.410	52.260	13.769	10.483	10.472	144.191	0.203	NaN	-0.203	120.000	34.580	56.160	33.020	58.175	12.890	2.548	2.505	32.296	0.092	0.091	NaN	NaN	NaN	NaN	NaN	NaN	NaN	NaN	NaN	NaN	NaN	NaN	NaN	120.000	31.265	53.170	23.595	57.330	14.091	8.726	8.691	122.466	0.087	0.088	NaN	120.000	42.965	51.090	43.940	58.305	3.721	7.281	6.482	24.121	-0.110	NaN	-0.009	120.000	41.665	52.390	38.675	63.960	5.437	11.950	11.630	63.231	-0.291	-0.126	0.361	NaN	NaN	NaN	NaN	NaN	NaN	NaN	NaN	NaN	NaN	NaN	NaN	NaN	NaN	NaN	NaN	NaN	NaN	NaN	NaN	NaN	NaN	NaN	NaN
121	120.000	121.000	31.720	48.425	19.825	48.165	12.509	11.898	11.850	148.230	-0.043	-0.065	0.003	121.000	30.680	50.570	20.410	52.260	13.847	10.408	10.393	143.904	-0.079	NaN	0.075	121.000	34.515	56.095	32.955	58.305	12.896	2.705	2.631	33.927	0.125	0.144	-0.016	NaN	NaN	NaN	NaN	NaN	NaN	NaN	NaN	NaN	NaN	NaN	NaN	121.000	31.265	53.170	23.530	57.330	14.091	8.783	8.751	123.307	0.060	0.057	NaN	121.000	43.030	51.155	44.005	58.305	3.762	7.216	6.492	24.421	0.010	0.009	0.073	121.000	41.535	52.455	38.740	63.960	5.556	11.840	11.436	63.536	-0.194	-0.015	0.094	NaN	NaN	NaN	NaN	NaN	NaN	NaN	NaN	NaN	NaN	NaN	NaN	NaN	NaN	NaN	NaN	NaN	NaN	NaN	NaN	NaN	NaN	NaN	NaN
